AF3,F7,F3,FC5,T7,P7,O1,O2,P8,T8,FC6,F4,F8,AF4,Class
46,-124,-162,-149,-230,-163,-98,49,11,27,123,-268,-26,32,0
50,-117,-169,-149,-222,-166,-92,54,22,25,121,-261,-31,30,0
46,-125,-173,-155,-226,-168,-95,42,10,26,108,-272,-47,15,0
38,-140,-181,-157,-232,-165,-113,20,-17,8,88,-292,-69,-6,0
36,-149,-182,-157,-231,-175,-126,10,-20,-13,79,-295,-86,-12,0
47,-155,-169,-161,-233,-190,-123,19,-9,5,90,-270,-78,-6,0
67,-145,-159,-156,-238,-180,-119,34,4,31,112,-245,-59,6,0
80,-123,-157,-135,-225,-159,-117,50,23,47,134,-234,-44,28,0
82,-116,-151,-122,-213,-160,-116,64,45,66,149,-223,-19,38,0
91,-119,-145,-126,-216,-166,-124,66,48,64,149,-215,-6,37,0
103,-120,-148,-125,-218,-154,-130,53,37,46,140,-221,-30,36,0
91,-133,-158,-123,-216,-154,-124,49,31,49,125,-228,-53,19,0
76,-150,-168,-140,-217,-176,-126,47,17,51,119,-232,-56,-3,0
80,-147,-172,-146,-218,-181,-141,40,13,42,127,-233,-52,4,0
92,-140,-162,-127,-211,-161,-140,51,31,49,134,-224,-54,27,0
99,-151,-149,-124,-209,-154,-123,64,37,56,140,-212,-57,30,0
103,-159,-143,-130,-217,-166,-128,60,30,45,148,-200,-53,28,0
113,-141,-139,-123,-218,-170,-146,58,28,43,150,-199,-39,37,0
129,-128,-135,-118,-210,-168,-150,57,34,60,145,-205,-31,35,0
128,-142,-136,-124,-210,-173,-150,47,33,63,145,-201,-35,29,0
117,-145,-141,-128,-215,-170,-157,53,28,54,149,-195,-40,39,0
125,-125,-142,-122,-206,-160,-154,63,36,59,151,-190,-51,44,0
142,-116,-132,-104,-197,-155,-144,63,50,74,166,-176,-48,47,0
148,-120,-120,-92,-194,-156,-141,64,51,76,177,-164,-24,59,0
147,-129,-125,-98,-194,-156,-137,67,44,72,162,-173,-26,61,0
142,-145,-126,-98,-198,-155,-131,64,40,64,152,-182,-43,53,0
140,-154,-114,-93,-198,-154,-126,62,34,56,165,-175,-37,57,0
140,-167,-118,-102,-195,-154,-128,64,32,58,174,-170,-37,63,0
133,-188,-139,-108,-194,-156,-128,68,39,61,170,-171,-48,59,0
127,-195,-146,-108,-204,-144,-124,69,42,62,165,-170,-35,54,0
130,-202,-140,-107,-206,-128,-123,74,48,67,165,-167,-13,62,0
137,-214,-131,-99,-194,-122,-120,87,52,72,177,-162,-18,81,0
151,-203,-112,-80,-186,-112,-114,92,49,75,191,-151,-35,99,0
168,-189,-101,-70,-181,-97,-112,85,54,79,197,-137,-23,110,0
171,-194,-110,-71,-180,-102,-118,101,63,83,204,-130,1,126,0
165,-198,-119,-69,-186,-116,-125,116,65,77,212,-131,5,135,0
168,-193,-113,-62,-187,-118,-133,103,60,70,213,-129,1,137,0
176,-192,-107,-62,-188,-117,-144,97,55,73,212,-119,-1,143,0
177,-193,-109,-65,-200,-126,-152,101,55,74,212,-108,-12,143,0
168,-196,-112,-68,-202,-127,-154,95,53,60,210,-114,-20,135,0
162,-199,-109,-76,-192,-119,-150,89,42,54,206,-123,-10,130,0
166,-200,-109,-75,-187,-115,-148,93,34,51,207,-122,-6,136,0
165,-200,-111,-65,-187,-121,-157,91,35,42,213,-124,-15,146,0
168,-191,-103,-64,-190,-121,-159,87,38,60,223,-119,-17,153,0
192,-177,-78,-61,-184,-114,-153,93,39,80,239,-92,3,171,0
209,-172,-57,-41,-171,-117,-155,89,34,65,247,-76,24,184,0
202,-177,-55,-35,-176,-123,-161,74,27,56,239,-89,19,179,0
195,-174,-53,-44,-179,-110,-154,75,31,68,236,-89,3,174,0
203,-168,-46,-40,-169,-99,-154,88,33,69,243,-78,-1,179,0
211,-173,-46,-40,-173,-100,-185,89,23,57,242,-83,2,177,0
209,-181,-52,-54,-182,-105,-214,86,22,58,240,-86,0,174,0
203,-187,-56,-61,-182,-114,-217,87,22,64,241,-83,-8,174,0
204,-189,-54,-58,-188,-122,-217,88,23,60,239,-80,-10,171,0
215,-185,-46,-61,-196,-121,-213,103,34,56,244,-67,-8,179,0
220,-185,-36,-65,-195,-118,-200,121,44,65,251,-56,-8,189,0
214,-197,-39,-67,-198,-122,-197,107,39,66,250,-63,-11,185,0
212,-199,-39,-66,-200,-122,-207,88,29,58,247,-64,-7,178,0
225,-181,-30,-61,-192,-122,-211,93,29,72,252,-54,0,183,0
239,-168,-28,-58,-187,-125,-210,95,30,90,257,-45,5,201,0
244,-170,-30,-59,-187,-120,-213,76,15,79,255,-43,-5,209,0
240,-173,-27,-62,-193,-126,-215,54,-6,58,243,-49,-28,194,0
233,-180,-29,-64,-196,-136,-205,56,-7,45,239,-51,-31,183,0
228,-185,-40,-61,-188,-130,-186,79,3,46,250,-48,-16,186,0
228,-190,-43,-70,-190,-134,-183,85,4,58,248,-45,-19,183,0
233,-193,-38,-77,-200,-146,-184,79,-2,62,239,-38,-30,176,0
241,-190,-36,-66,-192,-136,-164,86,-2,57,246,-23,-25,180,0
247,-187,-42,-57,-185,-119,-153,96,7,66,254,-9,-17,190,0
261,-184,-41,-59,-189,-119,-153,103,21,83,266,3,-9,205,0
280,-180,-30,-57,-180,-117,-148,119,37,90,288,14,12,219,0
277,-182,-33,-55,-173,-118,-151,121,38,99,292,7,26,216,0
269,-190,-43,-62,-179,-119,-153,104,31,100,273,-1,14,210,0
284,-187,-33,-62,-178,-105,-132,101,32,88,269,2,3,215,0
286,-184,-24,-58,-171,-104,-119,108,47,96,281,5,1,213,0
266,-198,-47,-61,-178,-119,-129,108,53,113,282,-5,-4,202,0
264,-203,-62,-64,-178,-117,-125,105,48,107,276,-7,-5,203,0
272,-194,-53,-61,-166,-99,-113,109,44,102,280,-1,10,211,0
270,-191,-54,-60,-163,-100,-119,114,44,109,277,-4,6,209,0
271,-192,-63,-62,-168,-108,-116,116,48,104,268,-7,-16,203,0
278,-192,-51,-59,-172,-98,-92,121,48,101,270,1,-12,207,0
279,-194,-42,-56,-168,-89,-85,129,50,110,279,9,6,214,0
286,-191,-42,-57,-161,-97,-87,138,59,104,284,15,3,218,0
302,-180,-29,-44,-156,-96,-70,144,64,106,300,33,4,236,0
317,-180,-7,-31,-159,-87,-57,143,64,129,313,48,16,258,0
333,-181,9,-28,-170,-94,-62,137,58,134,310,45,22,264,0
347,-162,13,-23,-165,-99,-63,136,54,121,308,50,19,263,0
349,-148,10,-19,-142,-93,-63,128,49,119,314,56,14,265,0
347,-155,9,-19,-133,-88,-69,120,49,134,318,53,16,269,0
356,-155,11,-8,-143,-91,-65,123,53,146,326,49,31,270,0
356,-151,13,-1,-147,-97,-63,124,54,149,326,41,28,259,0
341,-159,9,-16,-143,-92,-64,117,43,134,305,21,6,245,0
332,-170,-6,-27,-139,-82,-50,119,36,115,293,13,-10,237,0
336,-177,-18,-29,-139,-80,-33,124,41,120,305,21,-12,232,0
334,-184,-15,-35,-151,-81,-34,124,43,134,314,19,-7,232,0
331,-183,-7,-34,-154,-81,-34,121,40,135,307,16,-5,234,0
333,-182,-13,-31,-143,-78,-23,121,40,123,300,15,-21,228,0
337,-190,-17,-35,-142,-69,-20,121,30,113,294,16,-40,225,0
353,-181,2,-28,-145,-63,-17,120,21,111,297,30,-31,238,0
374,-163,23,-8,-138,-66,-6,121,27,121,317,49,0,249,0
381,-163,21,-1,-137,-65,-6,123,28,134,325,48,9,244,0
387,-162,21,-4,-132,-61,-7,122,23,136,320,45,-5,245,0
398,-144,35,4,-117,-64,-5,121,32,141,325,61,7,247,0
407,-125,38,18,-111,-65,-19,115,46,157,336,66,27,263,0
416,-119,35,30,-112,-65,-36,107,42,161,340,60,16,396,0
425,-121,42,31,-108,-66,-21,114,47,152,351,61,18,673,0
418,-128,43,15,-106,-65,-1,128,68,161,362,65,40,926,0
408,-137,32,0,-106,-63,-1,127,68,179,356,63,33,1051,0
407,-144,24,-2,-121,-60,-4,125,49,174,339,57,5,1109,0
398,-152,22,-1,-135,-61,9,128,44,156,324,41,-2,1130,0
388,-162,18,-9,-127,-59,28,131,43,159,320,26,6,1121,0
388,-175,12,-20,-122,-51,30,138,42,164,324,31,0,1107,0
381,-185,9,-29,-133,-48,24,140,45,148,319,36,-24,1090,0
373,-177,12,-24,-133,-50,31,136,38,133,314,32,-32,1075,0
392,-162,24,-6,-121,-52,39,136,31,142,318,35,-12,1076,0
417,-155,39,2,-115,-53,35,144,48,167,336,54,7,1085,0
424,-154,49,-1,-116,-55,32,146,61,182,354,71,17,1091,0
438,-146,54,9,-114,-58,30,137,53,184,361,76,26,1089,0
460,-129,57,32,-108,-61,27,128,53,188,357,76,15,1081,0
468,-121,57,32,-104,-59,27,125,60,189,354,77,8,1076,0
463,-127,54,10,-108,-59,28,124,51,178,353,80,21,1064,0
457,-144,49,-4,-107,-56,29,125,48,171,348,80,16,1032,0
446,-156,43,-5,-104,-47,41,133,52,172,338,68,-8,1000,0
434,-156,39,-3,-107,-50,52,132,40,171,325,48,-26,981,0
435,-161,36,-5,-109,-53,58,132,32,172,318,42,-32,979,0
438,-173,33,-18,-113,-46,62,142,43,168,317,54,-31,977,0
435,-181,32,-32,-119,-50,64,146,49,167,323,58,-22,965,0
440,-177,34,-30,-117,-54,70,153,45,172,344,55,-7,958,0
454,-162,42,-16,-102,-36,90,168,53,181,354,63,2,958,0
463,-155,51,-5,-98,-33,99,171,59,191,345,74,-7,946,0
467,-158,50,-3,-108,-54,77,156,49,191,344,71,-14,932,0
477,-157,49,-2,-104,-62,59,139,37,179,354,68,-2,931,0
484,-152,57,2,-94,-50,65,136,40,172,354,75,9,928,0
488,-148,60,3,-90,-33,78,141,54,188,354,78,13,914,0
491,-151,52,-1,-91,-30,85,141,61,203,358,71,8,901,0
487,-166,51,-3,-90,-35,87,144,59,200,353,65,-8,885,0
479,-185,61,-4,-95,-36,93,148,53,185,351,59,-13,862,0
474,-200,57,-9,-99,-28,96,152,50,175,349,53,-11,849,0
482,-209,46,-11,-99,-25,93,155,49,179,341,44,-11,846,0
488,-218,44,-14,-106,-29,100,153,50,176,340,36,-17,839,0
493,-228,49,-19,-114,-31,116,155,48,170,341,35,-23,831,0
492,-229,51,-15,-108,-20,125,166,51,172,335,37,-17,828,0
492,-226,51,-2,-95,1,125,171,61,177,338,39,-3,828,0
506,-221,51,2,-98,7,128,170,66,179,351,45,10,833,0
520,-212,48,2,-108,5,131,169,66,174,355,54,10,840,0
521,-208,50,16,-104,12,127,163,61,165,359,61,12,846,0
524,-213,63,31,-98,16,120,157,57,162,367,69,26,853,0
535,-203,66,32,-100,10,120,159,57,172,367,76,35,854,0
535,-189,55,28,-99,7,121,159,56,174,357,69,31,842,0
524,-194,51,27,-93,4,104,153,47,156,343,52,18,825,0
518,-197,53,28,-101,-3,93,141,36,146,334,47,7,814,0
516,-187,54,28,-110,-6,111,135,35,147,340,61,9,815,0
516,-189,57,22,-100,-1,125,142,35,146,347,67,22,811,0
512,-197,55,18,-94,4,128,147,40,148,344,60,27,795,0
498,-196,45,18,-102,3,137,146,45,155,346,55,22,789,0
497,-197,43,16,-109,2,143,144,40,150,354,58,15,791,0
511,-194,46,16,-106,17,144,150,49,149,351,58,18,786,0
509,-184,44,29,-95,32,151,160,67,167,341,60,37,782,0
492,-186,49,32,-93,30,153,166,69,176,346,64,44,786,0
492,-192,55,12,-105,23,147,159,58,165,350,61,18,774,0
507,-185,54,8,-104,24,147,151,59,162,343,60,11,764,0
510,-183,57,26,-93,28,150,155,67,170,348,68,31,770,0
505,-184,57,30,-91,28,150,156,63,171,365,70,37,762,0
511,-166,60,21,-90,24,154,152,57,162,368,68,29,750,0
519,-151,68,26,-90,23,155,153,65,160,363,73,28,755,0
517,-154,73,32,-92,29,152,161,79,173,365,81,33,758,0
516,-150,71,25,-95,31,161,170,83,186,370,81,28,745,0
523,-142,71,29,-95,30,174,170,81,191,378,78,27,745,0
523,-140,76,33,-86,29,178,159,83,184,385,73,33,745,0
519,-139,75,31,-79,29,177,156,77,181,376,73,24,724,0
516,-142,72,26,-86,30,183,158,73,181,368,76,13,718,0
514,-147,73,24,-95,30,185,155,70,179,372,78,19,718,0
517,-149,77,27,-94,27,176,153,65,176,372,81,17,700,0
516,-155,73,26,-93,23,170,150,65,177,369,74,3,691,0
521,-152,73,27,-89,25,178,152,71,188,379,76,15,697,0
537,-134,87,36,-81,31,187,164,79,194,386,92,39,694,0
550,-129,100,43,-79,34,187,164,77,199,380,94,36,691,0
554,-133,104,45,-75,31,191,158,77,208,378,92,24,694,0
555,-131,97,46,-76,31,194,164,83,209,389,97,30,691,0
548,-138,84,37,-87,24,188,158,81,202,393,90,34,689,0
533,-152,73,23,-91,9,187,148,73,198,388,77,35,685,0
524,-159,73,23,-91,8,188,152,63,185,381,78,30,666,0
529,-157,84,28,-93,13,183,151,57,170,372,82,18,656,0
538,-153,94,29,-93,15,189,147,52,172,370,77,3,663,0
536,-159,95,32,-92,17,204,152,54,173,373,78,-6,659,0
526,-165,97,31,-93,20,210,157,68,176,379,88,5,657,0
526,-155,104,28,-87,23,211,166,83,198,391,100,27,673,0
540,-148,106,29,-84,29,214,169,81,209,400,107,38,681,0
552,-156,111,35,-82,22,214,158,73,197,401,113,29,665,0
555,-156,117,34,-88,8,209,153,70,190,401,116,18,657,0
557,-151,119,30,-97,10,208,157,69,197,407,116,26,667,0
564,-151,122,31,-96,13,212,155,73,196,408,118,37,671,0
562,-149,117,35,-90,17,215,150,75,198,409,119,31,663,0
558,-143,113,36,-89,25,217,154,74,203,414,117,26,659,0
556,-143,116,34,-84,23,221,160,76,199,414,112,45,663,0
549,-152,108,24,-87,10,221,158,74,193,412,106,40,657,0
542,-158,92,16,-98,11,217,152,74,204,409,104,17,634,0
545,-153,93,24,-94,19,214,155,80,211,407,105,26,623,0
544,-149,104,31,-88,18,212,155,67,197,403,100,27,623,0
538,-152,103,19,-99,14,214,151,54,195,399,103,-3,623,0
534,-155,103,15,-103,15,221,157,70,212,402,117,1,623,0
535,-152,110,20,-99,23,232,166,84,216,416,124,29,623,0
539,-148,109,24,-100,26,233,161,76,205,421,125,31,626,0
538,-146,100,21,-98,24,221,150,73,208,413,121,23,623,0
534,-149,99,12,-94,27,221,150,73,221,414,117,25,607,0
532,-152,105,14,-93,25,229,156,62,215,420,120,23,595,0
531,-149,106,19,-95,14,219,142,54,199,409,123,12,590,0
524,-154,97,10,-97,9,204,120,53,193,391,106,5,573,0
517,-167,84,-2,-95,10,204,116,42,192,382,90,4,557,0
511,-168,77,-2,-96,8,208,121,37,194,386,95,2,565,0
513,-161,81,1,-100,9,210,121,45,196,389,98,-11,566,0
514,-169,87,2,-101,7,217,123,44,184,381,98,-24,549,0
504,-184,83,-6,-108,-8,217,127,34,175,375,97,-28,534,0
499,-185,77,-18,-116,-17,210,122,34,186,387,97,-17,538,0
504,-184,88,-10,-114,-11,208,119,41,198,399,105,-6,548,0
509,-181,101,0,-106,-8,213,134,50,203,404,115,-12,547,0
517,-166,107,-2,-105,-6,216,142,56,214,414,121,-11,551,0
524,-158,114,2,-104,-3,211,130,57,221,417,126,6,562,0
529,-159,121,6,-104,0,208,124,53,211,413,136,15,566,0
540,-152,127,6,-104,-1,212,133,43,206,415,148,10,566,0
548,-147,129,15,-102,-3,215,125,40,203,416,149,3,567,0
540,-146,122,25,-99,-4,207,107,37,194,408,136,-7,556,0
534,-136,117,27,-89,-3,201,105,27,194,401,123,-10,539,0
533,-135,116,25,-77,2,205,104,22,197,398,114,4,533,0
527,-149,112,24,-73,6,212,105,28,189,399,111,-1,534,0
524,-150,111,17,-79,8,216,120,31,186,403,114,-22,530,0
521,-153,111,5,-93,3,220,127,30,201,398,106,-23,518,0
514,-168,109,-1,-103,-2,221,123,32,207,386,97,-4,506,0
517,-169,111,-2,-103,0,221,127,32,198,390,104,4,510,0
526,-154,115,2,-100,-5,221,134,31,200,407,120,-4,527,0
529,-152,114,3,-100,-14,218,136,30,218,421,129,1,539,0
531,-160,115,0,-99,-8,214,132,33,231,425,135,17,535,0
529,-150,118,9,-99,0,216,125,34,224,427,136,25,532,0
522,-137,115,21,-99,-5,211,122,31,221,427,129,21,528,0
521,-137,109,23,-87,-9,203,111,32,225,422,125,20,515,0
526,-134,109,16,-77,-3,201,92,28,224,419,126,18,513,0
527,-127,117,17,-81,-2,196,89,24,223,415,129,-1,518,0
527,-131,120,20,-83,-5,188,92,22,211,410,122,-6,510,0
528,-143,119,19,-85,-6,192,90,14,193,405,113,5,503,0
521,-150,123,14,-93,-9,203,90,6,195,403,110,0,503,0
518,-150,129,6,-94,-6,216,94,4,202,405,114,-5,503,0
528,-149,134,11,-89,4,228,106,11,199,409,126,3,505,0
528,-156,133,8,-97,-7,230,123,18,200,413,129,-4,507,0
515,-164,120,-6,-106,-26,225,124,24,201,411,125,-15,500,0
516,-158,115,-5,-106,-15,231,124,28,203,413,130,-1,500,0
529,-153,121,4,-105,1,234,129,33,215,421,139,15,507,0
536,-153,124,3,-98,-9,222,123,32,216,430,141,26,510,0
541,-154,131,7,-91,-14,216,115,27,208,437,141,33,509,0
548,-161,140,20,-91,-1,225,115,28,215,433,138,26,506,0
548,-170,135,21,-85,5,232,116,38,227,427,131,30,504,0
554,-170,131,27,-79,5,228,116,40,230,432,128,54,505,0
564,-173,135,36,-79,15,226,115,37,226,442,123,62,509,0
562,-185,125,28,-80,28,236,119,45,222,435,118,57,511,0
557,-203,109,25,-88,27,240,126,44,217,423,115,49,507,0
548,-216,105,22,-103,23,237,124,26,189,412,100,28,495,0
532,-222,106,11,-104,28,240,122,25,162,392,82,15,477,0
529,-223,102,12,-104,32,247,136,40,176,391,81,27,476,0
531,-229,100,17,-115,29,248,154,41,199,409,92,34,487,0
523,-229,102,12,-118,27,244,155,37,190,412,98,32,493,0
520,-218,102,7,-116,28,247,144,37,179,402,101,38,493,0
521,-216,99,15,-113,28,243,137,33,184,406,108,31,496,0
519,-209,105,28,-102,30,228,135,31,174,415,114,24,500,0
528,-192,111,33,-94,29,225,124,25,167,412,112,50,503,0
532,-183,104,33,-99,24,229,116,24,178,409,109,68,507,0
519,-184,100,31,-103,24,225,128,28,186,416,116,50,506,0
518,-192,107,31,-101,21,225,135,32,189,425,122,47,508,0
520,-201,108,30,-106,12,234,132,33,193,415,112,65,503,0
504,-204,103,27,-115,3,236,133,28,181,391,102,53,487,0
493,-206,97,12,-120,4,238,137,26,162,384,105,31,477,0
488,-214,88,2,-124,9,240,138,20,162,389,98,26,473,0
475,-215,79,3,-134,6,230,136,19,168,389,85,18,469,0
465,-211,73,-3,-132,1,229,137,21,163,383,80,15,466,0
478,-203,80,3,-116,4,240,139,22,159,384,83,28,459,0
491,-191,100,18,-114,10,242,133,18,162,392,86,38,451,0
475,-193,98,14,-121,6,228,110,8,160,395,88,34,447,0
453,-197,77,-3,-123,-2,214,100,7,157,394,88,31,444,0
459,-184,80,-2,-122,0,213,115,22,174,406,90,33,446,0
474,-169,97,17,-111,8,217,127,37,195,427,96,44,462,0
470,-161,98,25,-102,9,212,120,32,198,436,103,68,466,0
461,-162,90,10,-110,0,195,104,19,189,425,103,71,449,0
460,-169,87,2,-113,-6,185,97,12,178,417,97,48,445,0
460,-169,89,4,-114,-4,187,92,4,168,417,91,31,444,0
456,-169,91,-1,-129,-8,194,88,-7,155,407,82,26,422,0
442,-183,84,-5,-131,-9,204,88,-14,142,383,66,11,395,0
429,-199,79,-7,-128,-6,212,91,-15,132,373,65,-7,391,0
429,-205,87,-17,-139,-9,212,93,-15,133,381,77,-14,395,0
434,-208,91,-23,-146,-21,209,93,-18,136,385,81,-25,387,0
436,-209,87,-24,-146,-25,212,92,-20,128,381,80,-23,377,0
434,-210,90,-21,-150,-17,214,91,-22,131,384,82,-4,383,0
434,-209,94,-18,-148,-18,211,91,-23,146,395,85,6,393,0
447,-199,92,-16,-139,-19,206,91,-13,152,405,88,17,397,0
458,-191,98,-9,-135,-8,196,92,-1,156,416,95,26,406,0
451,-190,99,-2,-128,0,187,94,8,175,429,99,23,416,0
444,-186,85,-2,-118,0,189,97,9,187,441,95,33,415,0
444,-181,78,-2,-118,0,190,98,3,164,439,87,51,408,0
434,-186,83,-2,-129,-1,185,97,-3,145,421,80,37,398,0
418,-196,71,-16,-131,-9,194,93,-21,142,399,67,9,381,0
407,-205,51,-27,-128,-3,212,86,-35,126,384,49,-5,360,0
396,-213,48,-30,-132,2,214,84,-37,105,379,48,-19,348,0
396,-204,57,-25,-137,-5,211,84,-32,112,382,62,-20,359,0
408,-191,67,-16,-137,-9,212,85,-31,128,390,65,-2,374,0
416,-191,69,-11,-135,-10,209,86,-34,118,400,66,7,372,0
419,-188,70,-10,-136,-9,211,90,-27,116,406,81,10,373,0
420,-181,73,-5,-136,-7,218,104,-13,147,418,102,25,395,0
432,-179,81,-4,-131,-4,220,121,2,170,439,119,40,414,0
452,-170,96,-3,-120,-6,220,131,18,174,450,130,40,420,0
462,-152,110,16,-106,-5,220,131,25,186,456,141,43,430,0
463,-138,118,32,-96,1,219,133,23,201,466,156,61,441,0
466,-131,129,32,-102,1,219,135,27,199,467,159,72,444,0
466,-139,128,30,-108,-4,218,127,34,192,455,149,61,432,0
458,-151,111,23,-104,-10,215,123,23,186,442,141,47,412,0
445,-153,104,5,-102,-12,216,121,3,163,421,123,29,398,0
435,-160,107,-1,-105,-10,216,106,-14,135,406,110,3,390,0
432,-175,105,1,-116,-11,218,99,-20,134,408,118,-2,384,0
429,-177,104,-5,-121,-15,224,112,-17,152,409,123,15,383,0
420,-176,95,-7,-120,-12,226,117,-17,155,407,118,9,377,0
419,-174,80,-8,-127,-10,218,116,-13,151,407,116,-5,370,0
425,-161,89,-6,-124,-9,218,124,-1,162,408,121,-1,376,0
431,-153,104,-3,-107,-7,229,125,4,177,420,128,3,382,0
441,-151,107,3,-106,-6,233,127,6,182,437,140,14,384,0
456,-145,116,13,-115,-5,235,139,19,189,445,153,36,397,0
464,-140,128,14,-109,-13,232,135,23,198,447,154,36,405,0
456,-142,120,10,-100,-27,221,123,5,186,436,148,15,390,0
450,-143,108,10,-108,-27,217,111,-11,163,419,146,10,372,0
445,-145,107,4,-122,-27,214,98,-15,159,411,141,8,364,0
432,-150,102,-9,-122,-42,196,93,-25,156,401,124,-9,352,0
416,-153,91,-16,-116,-45,188,91,-44,140,382,110,-34,332,0
408,-164,82,-20,-127,-39,196,89,-55,126,375,106,-53,316,0
400,-181,77,-30,-143,-50,191,88,-55,122,381,101,-49,307,0
398,-180,73,-35,-146,-60,189,93,-40,126,383,103,-36,302,0
409,-163,75,-19,-140,-59,202,105,-28,140,382,107,-30,306,0
414,-153,84,-5,-137,-56,201,109,-30,148,388,109,-23,317,0
412,-156,87,-10,-145,-60,185,99,-31,142,401,113,-22,324,0
409,-156,83,-16,-153,-64,177,84,-33,133,394,112,-30,319,0
406,-154,79,-16,-149,-65,175,77,-47,122,379,98,-33,310,0
402,-163,73,-25,-144,-64,179,71,-55,119,378,92,-28,299,0
394,-179,72,-32,-147,-62,182,66,-48,125,383,99,-31,301,0
389,-181,73,-27,-149,-59,182,72,-44,126,388,107,-36,312,0
393,-175,74,-26,-153,-61,179,73,-51,121,394,111,-29,309,0
395,-181,74,-31,-161,-69,167,61,-57,122,384,103,-35,299,0
396,-187,72,-32,-158,-68,160,59,-57,128,372,98,-57,296,0
403,-170,72,-22,-152,-57,166,74,-49,137,391,107,-49,299,0
408,-160,76,-16,-150,-57,170,80,-46,140,405,114,-22,305,0
403,-169,77,-24,-150,-65,169,75,-49,137,388,111,-20,303,0
399,-174,72,-28,-152,-63,174,72,-53,136,373,103,-37,292,0
399,-169,71,-25,-150,-59,178,69,-54,128,369,96,-42,288,0
403,-162,75,-22,-142,-64,177,80,-47,114,373,95,-34,295,0
412,-155,80,-8,-133,-55,185,91,-39,128,381,103,-28,297,0
417,-151,82,1,-131,-40,187,89,-25,160,388,105,-33,298,0
409,-159,70,-17,-131,-50,183,87,-26,165,389,101,-25,296,0
404,-169,64,-30,-135,-64,178,83,-34,151,384,94,-8,290,0
405,-187,68,-28,-139,-58,168,68,-32,139,372,84,-21,283,0
406,-206,63,-30,-143,-61,162,55,-35,126,368,71,-44,278,0
418,-207,60,-24,-144,-67,172,57,-39,133,378,75,-35,282,0
437,-202,69,-6,-138,-51,182,70,-26,155,384,94,-6,297,0
438,-208,66,0,-137,-34,182,78,-17,149,380,92,7,303,0
430,-217,54,-6,-136,-33,179,76,-27,134,377,82,-4,303,0
438,-215,55,-2,-137,-36,168,72,-30,139,380,87,-7,305,0
454,-214,57,3,-139,-35,161,75,-19,146,387,86,11,312,0
456,-216,61,4,-140,-28,174,86,-16,141,389,76,21,321,0
448,-218,64,3,-146,-34,185,97,-17,141,391,80,13,324,0
441,-221,53,1,-151,-42,182,99,-6,151,399,87,6,324,0
441,-213,46,1,-144,-34,183,107,6,154,402,85,18,327,0
449,-205,53,3,-138,-28,194,117,9,153,392,84,32,331,0
452,-203,56,5,-140,-22,196,117,6,155,391,84,26,330,0
443,-203,50,7,-139,-10,189,117,2,150,391,80,17,328,0
438,-204,46,3,-137,-17,184,106,1,141,387,72,18,322,0
440,-201,49,1,-139,-34,188,93,-1,155,395,62,6,318,0
438,-193,55,5,-141,-26,182,92,-12,124,397,62,-14,323,0
434,-197,54,2,-142,-32,167,92,-25,49,378,62,-10,315,0
431,-204,50,-5,-145,-54,164,86,-25,78,374,58,1,300,0
434,-193,51,-2,-147,-49,174,88,-14,176,395,59,3,305,0
436,-190,45,-2,-149,-46,178,96,-8,189,397,60,2,320,0
422,-208,38,-9,-159,-63,164,95,-11,142,387,52,-3,309,0
411,-208,39,-17,-163,-63,153,92,-17,129,390,46,2,295,0
416,-190,36,-12,-154,-56,162,92,-12,143,389,48,20,302,0
414,-188,26,-10,-152,-59,176,94,-10,146,381,46,10,299,0
398,-195,25,-16,-162,-61,177,90,-17,138,378,37,-20,279,0
402,-188,37,-11,-157,-57,176,87,-18,132,383,43,-13,277,0
413,-183,43,2,-146,-62,178,91,-16,128,384,49,10,291,0
408,-181,41,-2,-145,-65,168,91,-19,118,382,49,3,290,0
407,-184,42,-15,-152,-66,157,91,-26,128,387,52,-7,290,0
411,-186,46,-8,-156,-68,158,91,-24,146,396,53,-3,296,0
406,-183,48,-2,-151,-64,158,92,-26,136,391,53,-2,285,0
402,-181,48,-4,-152,-67,153,87,-31,133,383,53,1,276,0
419,-182,54,-3,-150,-79,155,77,-30,138,387,61,8,287,0
428,-181,53,-1,-137,-81,155,72,-29,126,388,66,4,288,0
415,-182,44,0,-145,-78,150,71,-36,117,379,60,-16,269,0
409,-191,44,-3,-162,-84,151,65,-41,122,376,49,-27,259,0
415,-200,48,-5,-155,-90,152,63,-33,121,382,50,-10,264,0
417,-199,50,-2,-145,-88,153,78,-22,124,384,65,7,271,0
410,-196,46,-6,-154,-86,155,95,-16,131,380,65,-10,267,0
406,-198,38,-13,-156,-84,155,96,-13,128,371,52,-25,256,0
406,-206,31,-12,-152,-86,154,92,-13,125,367,45,-3,250,0
402,-207,28,-10,-149,-87,154,89,-14,129,369,40,10,247,0
404,-203,29,-9,-141,-75,156,92,-13,135,370,41,-6,248,0
420,-193,35,-2,-135,-65,162,96,-4,144,373,54,6,260,0
430,-189,40,1,-136,-63,166,96,-9,141,379,62,30,267,0
420,-201,37,-3,-142,-67,159,91,-25,125,377,54,6,260,0
415,-199,36,-2,-143,-66,154,86,-24,120,372,56,-2,259,0
425,-183,43,2,-133,-62,160,92,-10,130,384,71,35,268,0
426,-181,46,3,-131,-62,160,103,-4,139,399,73,39,271,0
421,-195,46,2,-141,-64,154,102,-3,139,393,71,12,272,0
417,-197,41,-2,-142,-62,161,100,5,140,380,71,13,270,0
411,-192,39,-3,-136,-56,175,118,11,139,380,68,11,260,0
402,-201,42,-4,-139,-58,184,129,8,136,389,67,0,254,0
394,-212,43,-12,-144,-62,184,116,6,136,387,75,11,256,0
393,-208,42,-16,-146,-60,171,107,3,132,376,79,15,250,0
396,-203,41,-14,-148,-59,155,103,-11,110,370,71,2,242,0
398,-204,45,-12,-142,-63,157,96,-21,104,371,68,7,244,0
403,-191,54,-5,-129,-59,170,98,-8,137,382,81,16,254,0
411,-181,61,5,-124,-56,167,95,4,158,394,96,11,267,0
419,-186,58,6,-131,-62,155,87,-9,142,396,97,20,273,0
418,-188,52,3,-141,-67,150,87,-24,125,386,88,35,266,0
409,-183,49,6,-139,-69,150,87,-20,124,382,83,25,254,0
402,-183,49,5,-132,-65,155,91,-10,126,394,85,10,258,0
398,-189,51,1,-133,-67,157,103,-8,129,399,86,10,262,0
394,-189,45,-4,-140,-78,156,103,-13,133,383,75,12,250,0
401,-184,45,-2,-132,-73,160,99,-5,135,377,70,20,246,0
419,-174,56,7,-119,-57,164,101,5,143,389,79,27,257,0
419,-171,55,5,-123,-59,158,100,2,149,392,80,14,261,0
410,-175,46,-1,-133,-69,156,97,-2,140,385,74,4,254,0
409,-177,46,-1,-131,-63,160,96,0,128,381,75,12,251,0
411,-175,44,0,-135,-62,161,93,1,131,379,79,18,248,0
405,-178,40,-3,-141,-66,156,92,-3,145,377,79,13,248,0
404,-181,44,-4,-126,-60,154,97,-4,145,375,81,10,253,0
406,-178,46,0,-113,-52,167,106,-4,135,379,81,5,249,0
401,-183,43,-1,-125,-52,180,111,3,137,380,74,-5,245,0
393,-188,38,-9,-134,-60,176,104,5,142,373,67,-7,244,0
390,-189,35,-8,-132,-65,166,89,-6,137,372,65,6,242,0
394,-197,41,-1,-137,-65,169,97,-3,139,383,70,20,243,0
395,-196,44,-3,-140,-63,174,115,11,155,392,79,21,245,0
395,-187,41,-7,-132,-62,174,115,14,166,390,83,17,245,0
396,-186,43,-3,-130,-59,173,112,7,157,386,78,10,243,0
399,-187,48,-3,-134,-58,171,108,5,140,386,78,1,244,0
402,-182,48,-3,-130,-63,174,97,-1,133,383,84,9,244,0
407,-181,48,0,-130,-65,168,87,-13,128,382,85,19,243,0
411,-180,49,1,-132,-60,156,89,-13,121,382,75,13,246,0
408,-179,53,3,-124,-60,155,93,-13,126,374,74,7,242,0
403,-183,51,3,-120,-67,155,87,-17,134,365,83,4,235,0
406,-180,49,2,-123,-68,161,90,-7,133,375,93,-4,237,0
409,-175,55,5,-120,-56,178,110,13,139,386,101,-8,246,0
402,-181,52,-5,-123,-62,175,117,11,143,383,97,0,237,0
396,-192,38,-16,-139,-79,155,100,-10,122,373,82,0,217,0
397,-194,39,-12,-140,-74,155,97,-17,111,361,75,-8,217,0
395,-185,41,-13,-132,-62,161,101,-7,129,358,79,-10,224,0
389,-193,33,-25,-134,-66,158,91,-6,134,365,76,-11,217,0
387,-200,29,-21,-132,-69,155,84,-15,123,368,73,-18,210,0
393,-195,31,-8,-123,-61,154,89,-11,127,367,79,-12,212,0
400,-199,36,-4,-123,-57,156,94,-4,139,373,78,14,214,0
402,-209,42,-3,-128,-61,159,92,-2,143,378,77,31,217,0
405,-216,39,-6,-129,-64,159,89,0,139,373,80,33,221,0
412,-230,29,-9,-129,-54,168,100,3,136,369,73,35,222,0
418,-242,28,-2,-125,-40,179,110,6,142,374,72,31,221,0
421,-237,24,0,-122,-35,179,100,4,147,375,76,20,223,0
420,-247,14,-10,-133,-41,165,87,-7,126,354,60,14,219,0
414,-266,11,-13,-138,-44,158,87,-11,108,343,49,16,214,0
424,-251,20,1,-130,-36,167,92,-4,117,359,66,28,230,0
441,-232,26,8,-128,-28,175,91,-5,120,371,77,45,251,0
438,-238,32,2,-139,-39,168,91,-7,112,373,72,51,254,0
432,-243,45,3,-141,-52,162,98,5,120,379,79,42,261,0
445,-235,48,6,-135,-52,162,99,2,131,383,85,27,277,0
446,-235,39,4,-143,-58,157,90,-11,113,372,75,26,271,0
433,-236,42,3,-152,-63,153,87,-12,95,368,74,41,261,0
437,-236,51,5,-150,-60,152,88,-17,91,376,85,47,274,0
433,-241,40,-1,-152,-63,149,84,-28,88,370,78,26,278,0
411,-245,29,-4,-170,-71,147,83,-28,88,356,60,8,255,0
406,-245,27,-6,-169,-69,150,86,-22,85,360,61,21,245,0
407,-246,24,-15,-153,-61,153,88,-22,90,376,75,37,255,0
400,-244,17,-21,-155,-63,150,81,-21,100,378,73,31,258,0
407,-233,17,-8,-156,-63,147,72,-19,102,376,71,24,252,0
415,-219,23,3,-143,-54,152,80,-12,103,377,75,33,248,0
397,-222,17,-12,-146,-54,155,83,-5,101,375,71,35,244,0
385,-233,9,-27,-160,-50,153,76,-7,90,371,68,26,238,0
396,-228,12,-26,-152,-40,154,74,-11,91,370,64,21,234,0
398,-224,15,-24,-146,-36,156,69,-15,96,367,49,13,229,0
393,-224,12,-27,-161,-50,149,62,-17,77,363,43,0,232,0
400,-216,12,-28,-164,-54,147,63,-24,73,368,54,-2,247,0
397,-215,14,-30,-161,-38,157,64,-32,85,366,50,2,244,0
383,-221,15,-31,-164,-41,157,69,-29,79,358,48,-3,229,0
385,-216,20,-25,-162,-60,146,80,-20,80,367,62,-5,231,0
392,-210,19,-23,-159,-66,141,82,-17,90,387,69,5,243,0
380,-214,17,-29,-162,-56,140,78,-13,89,386,63,0,239,0
370,-212,19,-29,-163,-58,133,75,-15,90,373,64,-23,224,0
380,-203,20,-29,-161,-62,124,67,-27,93,373,63,-19,222,0
390,-198,16,-31,-160,-61,124,66,-32,79,375,59,4,227,0
384,-193,12,-30,-158,-65,126,78,-29,77,371,61,3,222,0
388,-185,23,-28,-154,-63,127,76,-27,96,378,58,-3,223,0
403,-181,33,-24,-149,-63,124,65,-32,97,390,60,13,235,0
406,-182,25,-23,-151,-67,123,61,-33,91,390,61,13,238,0
402,-182,15,-28,-159,-65,126,60,-31,95,383,51,-5,235,0
402,-187,19,-31,-156,-63,125,61,-32,102,378,48,-1,236,0
395,-194,22,-29,-152,-57,129,67,-36,96,372,49,6,229,0
392,-204,17,-30,-159,-51,138,68,-40,79,372,48,2,225,0
390,-214,22,-34,-162,-53,140,63,-48,73,377,56,0,239,0
386,-206,29,-31,-161,-58,141,70,-43,88,380,67,-7,245,0
398,-188,22,-26,-162,-54,142,73,-32,97,381,63,-3,243,0
407,-187,21,-30,-160,-54,141,69,-34,95,384,62,20,250,0
400,-192,34,-27,-152,-55,141,70,-34,101,388,70,17,256,0
403,-186,36,-15,-150,-50,138,67,-30,97,385,68,0,252,0
411,-182,30,-14,-158,-51,128,60,-34,85,381,66,13,249,0
407,-177,32,-16,-151,-52,127,67,-30,96,394,73,30,259,0
412,-165,37,-3,-144,-48,131,73,-16,113,401,77,33,266,0
417,-166,26,-1,-154,-47,130,65,-21,114,387,73,29,256,0
402,-178,15,-21,-160,-53,129,61,-41,106,371,60,8,240,0
383,-186,15,-32,-158,-65,126,60,-53,89,364,48,-9,230,0
385,-184,19,-27,-164,-70,124,56,-52,72,361,51,-3,229,0
394,-179,19,-28,-166,-63,124,57,-53,76,364,56,4,234,0
386,-179,16,-32,-166,-61,120,59,-66,73,359,47,0,233,0
376,-180,13,-33,-172,-68,118,54,-73,61,347,36,-23,224,0
382,-179,13,-32,-172,-66,123,53,-67,73,350,40,-38,219,0
389,-180,18,-31,-166,-57,125,58,-58,91,359,49,-23,221,0
390,-169,17,-30,-164,-56,123,58,-58,87,369,51,-1,230,0
388,-153,13,-31,-152,-56,120,57,-54,89,381,55,5,235,0
390,-152,17,-24,-141,-51,124,58,-41,106,383,64,1,240,0
403,-150,31,-11,-142,-50,129,63,-35,112,387,79,8,259,0
414,-140,44,-7,-146,-56,126,67,-36,118,401,95,29,277,0
413,-135,43,0,-142,-59,122,69,-34,133,410,95,46,270,0
415,-137,30,4,-134,-58,125,73,-43,130,398,79,29,251,0
412,-144,26,-10,-138,-61,126,75,-56,111,388,71,0,252,0
401,-149,29,-15,-144,-62,123,79,-47,109,399,76,4,261,0
395,-145,33,-9,-143,-61,126,78,-39,122,408,77,13,259,0
389,-150,30,-20,-145,-60,130,76,-47,119,396,75,8,249,0
377,-158,20,-34,-151,-63,127,74,-52,102,386,71,1,242,0
371,-156,17,-31,-150,-72,125,64,-54,103,387,65,2,237,0
374,-156,20,-26,-143,-72,127,56,-62,116,380,68,-9,237,0
382,-155,23,-27,-139,-56,126,63,-62,116,375,70,-20,244,0
387,-150,23,-27,-136,-49,131,66,-54,114,377,69,-11,241,0
390,-151,22,-22,-136,-45,144,59,-49,122,380,79,9,241,0
399,-142,28,-11,-134,-37,141,74,-38,124,395,93,24,264,0
410,-123,46,1,-129,-41,129,82,-27,133,412,102,33,287,0
412,-123,53,0,-131,-62,123,66,-30,153,403,97,37,284,0
399,-132,35,-10,-138,-80,118,56,-43,148,379,88,29,262,0
389,-129,26,-13,-136,-82,115,61,-45,136,375,90,20,257,0
392,-126,36,-2,-125,-70,120,65,-44,140,378,97,20,262,0
394,-132,33,0,-124,-61,122,60,-53,126,358,84,10,252,0
387,-142,18,-16,-134,-73,117,58,-58,107,337,71,-18,238,0
378,-151,13,-29,-137,-79,118,59,-53,120,339,76,-26,238,0
375,-155,16,-28,-136,-65,126,65,-48,135,347,82,-2,245,0
378,-144,17,-17,-134,-62,132,77,-42,137,346,78,13,248,0
385,-133,25,-5,-133,-69,130,81,-37,138,351,83,2,253,0
391,-134,29,-2,-135,-69,125,69,-47,129,353,95,-3,261,0
394,-129,27,-3,-132,-67,124,58,-61,115,352,105,9,269,0
406,-119,39,-1,-124,-64,123,57,-58,121,352,107,19,276,0
423,-118,54,2,-119,-65,122,52,-50,134,351,107,18,280,0
434,-119,61,3,-124,-77,121,50,-49,139,355,118,16,290,0
437,-119,61,7,-125,-87,119,60,-47,140,365,126,19,295,0
431,-135,53,3,-125,-84,122,63,-43,137,357,117,13,281,0
416,-153,42,-5,-128,-82,121,62,-45,134,335,97,1,264,0
404,-166,36,-5,-122,-82,122,61,-47,133,326,86,1,257,0
403,-183,30,-4,-122,-79,134,63,-45,132,327,80,-1,256,0
410,-195,25,-5,-141,-82,139,66,-48,135,321,79,-6,249,0
422,-192,26,-2,-151,-80,129,65,-47,141,316,84,6,243,0
429,-196,27,3,-141,-76,123,64,-46,125,321,86,15,253,0
432,-207,23,4,-144,-74,130,65,-48,110,325,89,16,273,0
438,-210,26,0,-156,-66,129,61,-47,122,321,98,22,285,0
450,-207,34,4,-148,-60,124,66,-46,135,328,103,26,297,0
466,-193,47,22,-138,-58,141,86,-38,141,350,112,44,327,0
482,-179,61,35,-139,-56,156,97,-19,153,368,130,84,358,0
486,-185,62,30,-144,-54,140,89,-8,151,368,134,93,371,0
474,-190,54,31,-142,-59,121,85,-18,137,358,120,74,363,0
461,-183,40,36,-138,-65,128,87,-20,138,353,103,76,343,0
460,-187,22,24,-139,-66,132,88,-21,136,350,87,76,328,0
454,-206,14,12,-138,-71,124,84,-34,115,333,81,54,317,0
435,-222,17,7,-150,-81,126,75,-42,102,318,78,38,305,0
430,-227,15,0,-163,-91,128,71,-42,92,318,68,28,301,0
446,-219,13,-4,-159,-92,123,73,-49,79,322,68,15,297,0
450,-215,19,0,-154,-90,123,75,-56,89,322,85,15,295,0
445,-219,27,2,-161,-93,130,74,-57,104,324,98,32,309,0
452,-215,28,0,-161,-93,128,74,-50,101,330,100,43,324,0
461,-200,32,1,-154,-95,122,79,-36,108,346,106,41,328,0
465,-187,47,13,-151,-94,127,86,-23,127,367,123,51,341,0
474,-183,56,23,-148,-93,130,87,-17,128,373,136,74,355,0
473,-185,50,15,-154,-101,123,83,-22,120,366,124,71,346,0
463,-188,43,5,-157,-100,123,90,-31,125,371,112,58,336,0
462,-182,46,18,-146,-94,128,92,-26,138,386,123,72,348,0
463,-173,48,25,-140,-92,126,92,-13,138,389,127,83,350,0
456,-168,44,13,-135,-94,126,88,-20,131,386,121,76,331,0
449,-170,36,11,-133,-96,130,87,-29,139,401,123,82,327,0
438,-169,37,12,-136,-90,131,91,-24,141,406,122,86,331,0
421,-167,34,3,-146,-94,122,87,-29,122,389,113,61,316,0
409,-177,22,-4,-154,-113,116,69,-50,112,379,110,41,303,0
405,-186,18,-3,-152,-114,116,58,-60,114,382,105,51,304,0
402,-182,24,-4,-154,-96,114,60,-56,105,383,99,61,299,0
409,-176,35,-3,-159,-93,111,62,-53,106,386,113,55,302,0
420,-176,40,3,-156,-97,113,63,-55,111,386,125,45,315,0
417,-179,29,-2,-150,-93,119,62,-55,109,375,114,45,310,0
408,-179,25,-4,-147,-95,125,66,-49,113,375,112,54,296,0
410,-179,34,-1,-147,-87,129,80,-42,128,383,127,63,301,0
407,-181,31,-3,-150,-72,126,81,-39,137,383,135,59,315,0
401,-185,26,-6,-152,-81,125,67,-38,127,380,130,50,310,0
412,-183,37,-5,-147,-95,127,60,-43,118,381,129,55,304,0
426,-181,37,0,-150,-84,124,62,-49,114,383,138,68,319,0
426,-183,28,-2,-156,-72,119,62,-50,114,381,146,62,329,0
427,-184,36,-4,-149,-72,114,61,-44,119,380,140,47,320,0
432,-184,42,-2,-146,-71,108,62,-44,118,380,138,53,319,0
435,-183,38,1,-150,-73,111,63,-50,109,377,144,71,323,0
440,-183,38,2,-149,-72,121,63,-48,109,373,138,68,315,0
439,-183,43,1,-149,-65,120,62,-45,122,368,128,43,304,0
431,-184,39,-1,-154,-65,114,61,-43,125,366,127,33,302,0
438,-182,39,0,-150,-62,120,65,-33,128,373,137,59,313,0
443,-176,50,4,-139,-46,125,73,-23,139,381,144,82,325,0
434,-174,49,-1,-141,-45,116,77,-25,140,376,141,61,319,0
421,-180,31,-10,-147,-59,110,69,-32,129,360,131,40,309,0
419,-184,23,-8,-145,-57,114,63,-33,111,352,131,56,307,0
422,-177,32,-4,-141,-50,113,67,-38,106,364,138,70,309,0
425,-176,35,-9,-141,-60,107,71,-36,127,372,138,53,314,0
420,-173,27,-6,-137,-55,115,67,-31,133,363,135,43,316,0
414,-168,25,-5,-134,-39,122,63,-34,121,356,134,53,312,0
416,-172,30,-14,-135,-49,107,63,-42,117,360,131,58,308,0
410,-176,24,-13,-131,-61,94,63,-38,120,362,127,52,310,0
402,-171,17,-6,-125,-56,97,59,-32,123,363,125,46,310,0
408,-163,24,-5,-124,-52,99,58,-34,134,372,130,48,310,0
418,-156,38,-3,-128,-48,96,62,-32,137,374,136,59,316,0
426,-144,42,4,-123,-34,99,63,-31,134,373,139,72,326,0
432,-144,39,4,-117,-36,99,61,-43,143,379,143,74,332,0
430,-143,42,3,-119,-47,94,56,-45,145,388,149,61,326,0
428,-128,48,7,-116,-48,103,61,-29,140,391,158,59,327,0
434,-122,48,4,-114,-51,110,77,-17,147,393,162,80,339,0
438,-133,50,1,-125,-57,98,79,-22,146,394,163,87,342,0
429,-146,51,-3,-136,-61,89,67,-31,135,386,154,60,336,0
421,-150,43,-8,-136,-63,94,60,-34,133,380,144,54,331,0
423,-145,35,-8,-131,-54,93,63,-29,142,391,150,77,332,0
433,-132,43,-1,-126,-45,90,63,-23,154,408,166,79,341,0
438,-129,49,-1,-117,-48,95,61,-23,156,410,167,62,344,0
428,-145,43,-13,-113,-47,96,61,-31,142,400,151,53,324,0
419,-152,42,-19,-117,-37,93,58,-40,128,396,147,53,308,0
420,-145,42,-18,-120,-40,91,57,-40,130,394,150,54,315,0
419,-142,37,-19,-125,-52,89,58,-21,144,394,146,58,320,0
417,-148,40,-20,-126,-54,91,62,-5,163,405,147,66,317,0
426,-149,50,-17,-126,-56,93,66,-11,173,417,163,73,322,0
434,-143,49,-15,-128,-64,91,65,-20,166,421,168,71,325,0
434,-140,44,-18,-128,-64,90,63,-22,159,416,159,61,323,0
440,-137,49,-11,-123,-55,93,65,-28,154,411,161,68,326,0
450,-137,57,-3,-120,-54,95,66,-33,140,414,169,76,327,0
447,-134,59,-2,-121,-62,95,64,-32,134,414,171,62,328,0
448,-125,55,-2,-121,-60,92,65,-40,142,413,173,57,332,0
445,-134,49,-16,-126,-60,90,64,-49,144,415,168,65,324,0
421,-151,40,-27,-132,-62,94,65,-38,133,404,153,53,300,0
402,-156,27,-27,-134,-62,95,66,-29,132,388,139,23,285,0
413,-155,27,-29,-138,-64,94,61,-34,145,397,138,22,282,0
425,-147,43,-26,-137,-64,93,72,-28,150,414,150,48,295,0
424,-136,48,-16,-136,-66,91,83,-14,145,413,165,59,314,0
432,-134,46,-18,-132,-70,91,69,-21,146,414,170,56,316,0
443,-136,43,-21,-132,-69,81,58,-33,155,417,158,63,314,0
450,-131,39,-18,-135,-66,63,62,-29,156,406,147,58,311,0
456,-135,39,-27,-136,-68,67,63,-34,146,400,153,39,304,0
456,-146,45,-33,-139,-69,89,58,-45,133,403,161,48,300,0
459,-142,45,-18,-138,-64,94,58,-49,130,403,157,65,309,0
477,-134,49,-1,-125,-59,86,57,-52,129,398,158,57,322,0
496,-139,69,-1,-124,-60,89,58,-49,126,402,171,64,325,0
504,-149,80,3,-138,-60,93,63,-33,136,413,177,91,333,0
512,-150,69,15,-136,-43,97,74,-12,158,417,178,100,341,0
510,-157,59,15,-127,-25,106,81,-6,165,413,178,88,340,0
493,-175,54,1,-132,-28,104,67,-12,153,404,162,87,328,0
482,-188,42,-1,-140,-35,91,54,-24,141,394,141,93,318,0
482,-196,30,1,-142,-33,95,71,-26,125,382,134,78,317,0
480,-196,24,-2,-140,-34,111,83,-20,117,382,139,66,325,0
474,-191,22,0,-139,-34,108,82,-19,125,386,141,85,336,0
469,-190,21,5,-142,-33,97,81,-13,130,382,140,99,343,0
462,-195,16,4,-153,-44,96,72,-20,118,382,136,75,346,0
453,-194,9,6,-161,-58,95,58,-34,109,383,129,64,342,0
452,-183,12,6,-159,-60,94,57,-34,111,375,125,95,337,0
449,-182,10,1,-154,-56,97,67,-30,104,371,127,96,343,0
439,-192,1,-1,-162,-57,99,70,-33,93,378,136,77,350,0
441,-193,6,0,-172,-62,97,74,-33,96,382,147,83,350,0
449,-185,16,2,-162,-65,98,78,-36,106,377,150,89,347,0
440,-170,16,4,-158,-63,98,68,-44,101,368,144,72,343,0
426,-160,12,2,-169,-68,99,62,-42,74,361,137,62,340,0
419,-171,3,-1,-181,-75,95,69,-39,70,360,136,60,340,0
419,-185,2,-3,-187,-75,91,72,-42,94,360,136,62,336,0
418,-174,6,-4,-164,-74,93,66,-41,98,359,134,67,326,0
409,-163,-2,0,-132,-74,94,64,-41,79,360,130,62,320,0
392,-167,-14,-7,-140,-72,86,62,-49,79,349,120,59,314,0
375,-172,-21,-25,-172,-81,82,55,-64,88,326,105,56,298,0
370,-168,-22,-30,-178,-82,85,53,-61,78,326,102,46,288,0
374,-157,-15,-21,-171,-71,88,57,-46,76,344,114,46,297,0
372,-152,-14,-24,-174,-80,86,60,-52,70,349,118,49,299,0
367,-147,-19,-35,-180,-93,85,58,-62,50,341,115,47,289,0
374,-131,-2,-28,-180,-87,91,65,-48,57,342,124,57,294,0
379,-120,14,-13,-167,-79,95,77,-31,78,347,132,69,309,0
368,-123,7,-18,-168,-85,94,77,-31,76,348,134,57,300,0
358,-123,5,-32,-171,-90,93,70,-33,72,347,133,42,282,0
358,-120,14,-33,-166,-86,92,69,-27,79,344,125,52,280,0
357,-118,21,-27,-165,-82,93,69,-24,84,345,126,67,285,0
353,-117,29,-31,-160,-81,88,59,-38,78,346,125,56,274,0
340,-120,31,-34,-152,-89,76,48,-58,55,329,107,26,254,0
328,-121,30,-35,-160,-92,66,36,-61,42,313,94,11,237,0
324,-123,39,-38,-169,-91,65,37,-52,64,323,99,32,229,0
323,-129,50,-35,-165,-88,75,56,-37,83,341,104,52,232,0
318,-120,47,-32,-168,-89,83,64,-27,73,345,102,39,233,0
316,-108,44,-35,-173,-96,78,56,-33,64,346,102,41,231,0
324,-106,54,-37,-172,-96,78,58,-36,70,352,107,69,237,0
323,-99,68,-32,-162,-86,92,67,-23,77,361,116,70,244,0
316,-89,76,-30,-156,-85,97,70,-18,83,362,114,55,246,0
315,-92,70,-32,-161,-91,93,69,-26,84,352,99,65,240,0
315,-95,66,-30,-161,-90,98,71,-28,81,349,98,77,234,0
307,-89,72,-27,-155,-87,99,76,-18,80,354,102,73,235,0
298,-90,72,-31,-159,-89,93,76,-17,76,350,97,72,235,0
290,-94,57,-35,-160,-93,82,72,-27,70,340,90,82,221,0
285,-87,48,-33,-149,-106,71,69,-31,71,334,89,80,209,0
283,-79,50,-30,-149,-111,66,63,-33,69,328,83,59,210,0
276,-77,49,-35,-151,-107,65,57,-44,55,324,79,52,209,0
264,-79,42,-39,-151,-118,65,58,-49,59,328,80,69,208,0
259,-80,43,-43,-159,-129,66,59,-49,77,324,76,78,211,0
262,-74,47,-45,-162,-121,65,59,-50,69,311,72,62,205,0
264,-68,46,-40,-157,-119,65,60,-50,51,305,73,48,196,0
262,-60,47,-35,-157,-118,68,62,-47,57,308,81,65,198,0
261,-53,50,-36,-154,-104,71,74,-43,77,317,90,90,210,0
264,-54,47,-35,-153,-106,69,78,-35,75,322,88,79,214,0
267,-48,44,-32,-160,-122,66,66,-39,57,320,84,68,211,0
269,-34,52,-33,-159,-124,66,60,-47,59,317,95,88,212,0
272,-24,55,-29,-149,-120,68,62,-41,79,323,103,98,217,0
270,-25,49,-21,-151,-124,65,66,-42,87,328,102,92,219,0
262,-30,45,-26,-156,-137,60,66,-52,83,324,100,88,219,0
252,-34,34,-47,-157,-154,52,48,-54,78,314,90,77,209,0
241,-33,18,-52,-159,-164,48,33,-61,68,302,77,71,195,0
238,-28,16,-43,-165,-167,55,50,-68,62,304,76,87,198,0
241,-29,22,-50,-165,-165,66,69,-53,76,314,83,94,202,0
235,-29,18,-64,-162,-167,66,67,-41,83,312,81,88,190,0
226,-30,11,-59,-166,-179,64,61,-58,77,303,73,85,184,0
232,-24,12,-53,-172,-186,66,60,-68,78,299,73,89,195,0
247,-13,17,-52,-167,-175,65,63,-58,88,301,75,98,202,0
255,-8,20,-39,-164,-168,60,57,-66,81,297,73,98,201,0
260,7,17,-34,-167,-171,59,44,-85,62,288,69,95,208,0
273,30,16,-35,-167,-174,57,41,-82,58,292,70,106,226,0
293,46,28,-32,-163,-177,58,46,-74,70,305,85,128,245,0
312,63,38,-18,-161,-184,57,44,-79,75,315,95,147,256,0
323,87,35,-2,-163,-193,43,40,-88,66,318,92,167,267,0
331,100,27,-3,-168,-204,29,45,-94,74,328,90,174,279,0
350,112,31,-4,-176,-215,29,43,-92,88,332,97,172,290,0
369,133,40,11,-176,-214,32,33,-93,73,325,99,176,303,0
378,138,44,14,-169,-211,31,29,-111,46,321,100,175,319,0
382,139,46,10,-166,-215,32,32,-119,46,324,105,179,329,0
389,149,49,19,-171,-221,32,34,-109,57,323,107,175,326,0
388,147,48,25,-170,-223,31,28,-119,49,309,105,162,316,0
376,132,48,18,-161,-226,32,26,-132,40,305,100,169,314,0
363,125,47,10,-157,-229,33,28,-122,48,307,91,169,309,0
343,119,34,0,-169,-234,32,24,-126,50,289,83,135,286,0
323,101,19,-5,-180,-238,24,16,-147,44,277,75,132,260,0
312,87,17,-7,-169,-231,26,22,-138,53,283,65,151,254,0
304,92,14,-21,-150,-225,33,32,-120,74,272,59,120,251,0
289,93,-1,-33,-140,-220,30,29,-126,81,249,47,95,229,0
262,73,-20,-31,-148,-216,28,27,-128,54,244,31,98,200,0
238,57,-25,-36,-158,-215,34,34,-125,32,243,26,80,184,0
228,53,-23,-50,-155,-218,33,34,-135,49,227,24,63,176,0
220,36,-30,-58,-147,-218,30,28,-138,64,215,13,62,159,0
206,13,-37,-58,-152,-213,32,30,-136,50,215,8,55,150,0
196,1,-39,-63,-159,-216,32,31,-136,46,213,11,58,151,0
194,-9,-34,-64,-155,-217,38,32,-125,58,214,13,67,146,0
194,-19,-30,-60,-154,-204,53,47,-115,65,216,12,66,145,0
197,-27,-35,-65,-157,-196,60,61,-120,74,215,17,81,155,0
204,-24,-38,-57,-153,-201,56,62,-108,82,217,28,102,161,0
209,-13,-28,-41,-139,-194,58,63,-94,89,227,36,93,167,0
206,-16,-28,-40,-139,-179,65,65,-102,85,226,32,80,172,0
190,-35,-43,-46,-155,-186,63,56,-114,62,206,15,84,162,0
171,-53,-54,-53,-160,-195,63,53,-121,40,187,-9,76,140,0
153,-59,-70,-67,-157,-192,68,58,-129,31,180,-22,50,131,0
145,-60,-83,-69,-159,-192,69,64,-124,32,180,-18,43,145,0
147,-54,-81,-60,-160,-193,68,74,-109,44,181,-22,57,152,0
151,-46,-75,-62,-158,-187,69,78,-111,48,184,-29,65,147,0
154,-36,-75,-63,-159,-189,67,67,-117,42,183,-20,64,154,0
156,-32,-75,-60,-161,-202,66,66,-118,46,185,-9,73,170,0
161,-33,-69,-59,-161,-209,69,78,-120,34,196,-3,88,177,0
168,-32,-54,-55,-156,-214,68,77,-119,20,203,6,84,183,0
171,-30,-50,-57,-156,-229,62,72,-119,38,201,10,73,188,0
170,-28,-60,-59,-164,-241,58,72,-124,59,202,8,89,188,0
171,-27,-71,-55,-163,-239,60,67,-115,53,207,10,107,188,0
164,-28,-72,-55,-156,-235,63,63,-95,50,198,4,83,186,0
148,-34,-69,-59,-165,-242,62,63,-95,39,185,-3,62,183,0
139,-36,-71,-65,-174,-245,61,59,-108,18,182,-2,74,178,0
136,-35,-77,-69,-165,-241,61,62,-105,35,184,-6,85,163,0
126,-36,-83,-75,-158,-241,63,75,-95,58,183,-16,82,151,0
118,-41,-82,-79,-161,-249,65,79,-96,45,177,-21,67,153,0
114,-39,-84,-78,-165,-260,63,75,-97,32,179,-16,56,157,0
112,-32,-87,-77,-168,-260,61,74,-96,45,180,-15,65,151,0
109,-33,-84,-77,-169,-259,62,76,-98,47,179,-14,71,148,0
109,-33,-78,-81,-162,-259,64,85,-94,33,182,-2,61,160,0
113,-25,-73,-80,-160,-253,65,95,-86,42,189,13,65,178,0
123,-23,-72,-77,-162,-248,64,90,-89,56,196,15,87,175,0
123,-26,-73,-80,-162,-254,60,76,-99,48,190,9,83,160,0
106,-32,-77,-89,-172,-267,57,69,-104,37,173,-1,54,143,0
94,-41,-90,-94,-175,-267,54,61,-110,38,166,-19,44,129,0
100,-47,-102,-94,-164,-266,45,55,-115,42,164,-31,53,121,0
95,-52,-106,-101,-167,-275,37,53,-118,34,153,-28,43,108,0
76,-70,-111,-115,-185,-287,33,48,-126,11,135,-32,23,88,0
68,-78,-115,-123,-191,-293,35,44,-123,-3,136,-37,23,84,0
81,-71,-110,-117,-185,-284,47,58,-108,18,145,-36,33,91,0
98,-73,-104,-109,-183,-277,60,70,-101,37,143,-33,28,90,0
102,-74,-111,-102,-179,-278,62,65,-101,22,145,-32,24,93,0
105,-65,-110,-96,-176,-280,61,61,-102,13,149,-28,37,109,0
119,-61,-87,-92,-172,-273,60,63,-100,33,158,-17,57,123,0
139,-56,-69,-86,-164,-268,55,67,-92,57,175,-1,67,141,0
148,-47,-67,-75,-164,-273,55,67,-87,57,190,8,78,154,0
145,-46,-66,-73,-166,-277,59,62,-91,38,186,3,91,155,0
141,-52,-67,-80,-160,-275,57,65,-88,42,174,1,83,149,0
138,-52,-76,-88,-161,-273,54,73,-80,62,169,-1,70,137,0
126,-59,-83,-94,-174,-277,56,72,-87,57,156,-17,73,124,0
113,-74,-84,-99,-180,-277,61,65,-96,35,140,-35,71,109,0
112,-81,-96,-105,-174,-271,64,74,-97,28,138,-36,57,106,0
111,-80,-104,-114,-167,-268,65,82,-94,35,144,-32,53,109,0
106,-80,-98,-120,-162,-259,68,79,-93,45,140,-36,62,103,0
111,-78,-91,-120,-163,-250,72,81,-92,41,125,-40,67,95,0
124,-71,-84,-114,-168,-249,69,86,-86,22,132,-34,64,107,0
139,-62,-67,-101,-158,-248,66,90,-72,35,154,-14,70,127,0
156,-48,-44,-90,-150,-247,67,92,-59,72,166,0,90,132,0
161,-40,-35,-86,-158,-255,64,93,-61,78,167,9,113,141,0
159,-45,-38,-89,-165,-262,58,84,-66,65,170,17,112,149,0
159,-48,-41,-94,-157,-258,60,85,-60,66,173,18,93,144,0
147,-54,-42,-104,-151,-253,63,97,-51,57,168,0,90,134,0
129,-66,-55,-116,-160,-253,61,88,-68,38,148,-17,92,116,0
128,-71,-67,-122,-173,-256,58,69,-92,36,133,-20,82,100,0
136,-66,-60,-122,-173,-258,64,76,-82,47,145,-21,70,106,0
134,-65,-56,-120,-166,-250,79,94,-68,51,147,-19,68,116,0
133,-67,-59,-118,-163,-240,87,91,-74,31,132,-20,75,112,0
144,-59,-58,-113,-150,-234,89,80,-75,22,143,-16,81,115,0
155,-58,-62,-114,-146,-234,89,85,-55,47,160,-8,79,119,0
157,-63,-66,-120,-160,-239,78,90,-44,71,162,3,83,120,0
166,-54,-53,-111,-158,-245,65,85,-45,74,177,20,104,135,0
191,-28,-37,-89,-141,-245,64,85,-38,79,203,33,128,159,0
200,-20,-39,-84,-141,-243,63,94,-26,89,199,34,133,157,0
182,-36,-52,-95,-153,-249,60,93,-28,89,183,19,115,134,0
171,-42,-59,-98,-158,-255,60,75,-39,84,184,6,97,121,0
173,-42,-60,-96,-151,-253,61,67,-42,80,183,7,103,120,0
171,-43,-54,-99,-144,-245,64,83,-43,72,181,13,104,125,0
172,-42,-55,-98,-147,-245,69,90,-49,62,195,15,86,130,0
180,-47,-69,-92,-159,-256,69,74,-53,60,200,10,84,128,0
189,-48,-78,-94,-161,-259,64,67,-52,75,196,11,102,129,0
196,-36,-69,-97,-157,-254,63,73,-47,86,209,18,109,145,0
196,-31,-54,-86,-156,-252,77,81,-40,86,225,28,103,156,0
202,-32,-51,-77,-154,-249,85,84,-30,94,229,38,111,151,0
221,-19,-47,-73,-149,-245,72,83,-26,106,238,44,124,155,0
225,-12,-45,-69,-146,-246,60,75,-36,100,238,37,109,160,0
206,-26,-59,-70,-150,-248,61,62,-57,72,222,18,91,144,0
195,-35,-73,-78,-148,-250,61,51,-75,57,213,3,93,128,0
198,-46,-69,-83,-150,-252,57,46,-81,64,209,2,77,125,0
197,-58,-66,-86,-156,-246,61,58,-72,74,204,0,52,125,0
194,-60,-74,-89,-154,-242,63,67,-71,73,205,-1,58,124,0
198,-62,-78,-87,-154,-246,65,61,-71,65,208,-1,77,124,0
199,-75,-80,-88,-160,-246,65,59,-60,65,215,-2,67,121,0
198,-86,-83,-92,-167,-242,63,73,-59,76,221,-3,58,122,0
208,-92,-82,-90,-171,-235,77,79,-63,79,218,8,81,129,0
223,-99,-81,-78,-167,-225,95,78,-57,76,228,27,98,137,0
237,-100,-69,-68,-153,-211,94,90,-51,82,253,39,99,159,0
258,-84,-51,-56,-145,-190,91,97,-43,100,276,45,115,195,0
275,-75,-50,-36,-146,-187,92,87,-39,109,285,49,136,207,0
274,-83,-65,-28,-145,-199,76,77,-44,99,277,43,131,200,0
264,-92,-75,-32,-150,-195,59,70,-45,89,267,38,106,194,0
255,-96,-80,-33,-161,-183,66,73,-40,89,267,36,96,192,0
252,-97,-80,-34,-157,-186,69,89,-34,82,276,33,119,195,0
253,-93,-83,-33,-148,-188,66,97,-19,79,277,29,133,202,0
249,-101,-101,-41,-156,-186,65,88,-16,89,270,21,108,203,0
238,-113,-116,-51,-165,-189,64,85,-22,85,268,17,96,202,0
238,-112,-110,-52,-158,-186,74,93,-16,84,285,31,126,216,0
247,-112,-105,-49,-150,-173,91,95,-8,95,299,45,135,227,0
246,-118,-112,-45,-157,-172,96,98,-9,90,300,44,116,226,0
242,-113,-113,-38,-164,-175,93,113,-1,90,305,47,119,224,0
254,-99,-103,-33,-157,-164,97,127,16,111,312,63,138,232,0
273,-91,-87,-27,-145,-153,102,119,17,114,314,78,138,249,0
278,-91,-85,-25,-144,-159,96,98,8,92,317,79,128,251,0
275,-93,-94,-29,-149,-158,91,90,6,80,316,73,127,243,0
278,-87,-93,-21,-151,-153,93,92,15,89,315,74,138,243,0
286,-86,-82,-15,-153,-171,90,92,12,101,312,80,139,243,0
288,-87,-82,-19,-145,-181,78,88,10,106,306,78,123,244,0
287,-71,-86,-10,-135,-160,83,92,27,102,313,83,119,251,0
289,-59,-82,3,-134,-148,92,98,37,95,332,100,138,256,0
293,-68,-78,-3,-132,-157,75,94,27,96,334,98,144,257,0
284,-86,-86,-22,-143,-167,58,85,20,96,312,75,112,240,0
275,-97,-96,-33,-158,-165,72,86,21,90,295,67,79,215,0
285,-86,-99,-33,-155,-158,94,92,21,89,301,73,89,222,0
304,-71,-92,-24,-150,-153,94,91,24,87,315,78,112,247,0
302,-77,-85,-22,-158,-157,92,92,18,73,315,83,88,244,0
292,-85,-81,-27,-158,-157,96,92,8,68,308,83,61,229,0
302,-81,-77,-23,-159,-154,90,79,6,77,317,84,80,233,0
309,-82,-75,-17,-163,-155,82,68,0,83,322,92,99,240,0
306,-85,-74,-18,-155,-156,75,71,-3,79,314,101,91,237,0
308,-83,-70,-21,-146,-153,67,72,8,72,321,101,84,233,0
313,-81,-68,-19,-151,-152,65,71,13,82,331,100,92,239,0
309,-85,-76,-18,-161,-157,64,72,13,112,329,100,106,247,0
302,-97,-85,-22,-157,-156,62,70,14,123,328,90,112,239,0
298,-105,-88,-31,-150,-153,72,73,8,104,326,76,93,224,0
294,-108,-94,-33,-160,-155,84,81,6,85,319,71,88,222,0
294,-110,-92,-31,-168,-148,87,82,3,88,315,82,98,232,0
306,-105,-77,-29,-159,-140,93,88,-2,103,321,97,97,249,0
319,-102,-69,-19,-150,-136,100,108,9,113,330,104,102,262,0
327,-100,-67,-2,-151,-127,96,116,23,113,330,102,117,261,0
338,-96,-58,0,-144,-122,93,101,23,104,329,103,126,267,0
344,-90,-49,1,-137,-125,94,96,20,99,340,111,120,285,0
341,-93,-53,5,-144,-125,90,99,19,105,344,115,106,289,0
347,-100,-58,-1,-153,-124,87,93,18,114,333,115,107,275,0
352,-94,-58,-7,-148,-123,93,91,26,126,335,118,127,273,0
343,-94,-65,-7,-143,-124,93,101,40,129,344,118,128,284,0
343,-111,-71,-7,-152,-121,91,109,41,123,340,120,103,286,0
354,-115,-59,-4,-146,-105,106,118,44,130,343,130,102,284,0
351,-108,-53,-11,-138,-106,111,116,45,136,344,130,112,280,0
340,-124,-72,-30,-156,-119,97,99,32,124,329,110,96,268,0
342,-130,-79,-34,-166,-106,104,96,25,109,324,102,74,265,0
350,-119,-59,-21,-141,-86,127,113,38,105,338,113,83,274,0
348,-122,-48,-23,-133,-91,118,118,46,114,341,115,102,270,0
347,-129,-53,-26,-143,-101,95,102,32,132,336,112,94,263,0
360,-118,-52,-13,-140,-95,96,93,22,142,346,122,92,275,0
365,-118,-44,-1,-135,-91,100,91,21,127,348,128,95,281,0
358,-124,-43,-10,-138,-101,92,86,19,114,334,118,88,274,0
363,-122,-44,-20,-143,-108,88,84,25,130,336,119,87,274,0
373,-119,-36,-22,-148,-103,92,92,38,156,350,126,93,280,0
370,-121,-30,-25,-144,-102,92,93,44,160,359,126,91,280,0
366,-121,-30,-17,-135,-103,93,89,36,139,360,125,84,275,0
370,-117,-30,-11,-136,-93,94,95,29,123,351,120,81,269,0
363,-124,-32,-26,-140,-88,93,95,22,128,341,116,76,265,0
355,-138,-31,-35,-140,-91,95,95,19,141,348,121,66,271,0
373,-136,-17,-22,-139,-90,98,109,28,148,363,129,63,279,0
391,-124,-1,-17,-139,-90,98,113,36,141,369,138,79,286,0
386,-124,-1,-17,-146,-95,94,101,29,134,372,141,92,291,0
382,-129,-5,-14,-153,-95,92,96,18,143,368,135,77,288,0
387,-127,-2,-14,-142,-92,94,96,20,154,360,129,69,281,0
388,-128,2,-18,-132,-88,94,90,21,146,359,137,82,283,0
393,-130,2,-18,-135,-78,93,89,19,140,368,143,91,293,0
402,-128,2,-11,-132,-72,93,94,17,152,384,144,90,300,0
390,-131,2,-17,-139,-86,89,89,22,163,384,152,78,300,0
376,-142,-1,-29,-150,-97,83,89,20,172,373,152,73,293,0
385,-149,-4,-31,-148,-89,87,94,11,170,377,148,79,289,0
388,-151,-5,-29,-150,-86,93,92,8,154,385,149,77,297,0
378,-156,-2,-37,-167,-94,93,92,3,149,378,152,59,298,0
382,-161,0,-39,-165,-80,103,102,-3,150,370,153,55,287,0
398,-156,9,-31,-154,-61,118,111,-4,148,375,156,67,286,0
402,-149,19,-24,-156,-64,120,109,-3,157,382,159,63,296,0
398,-152,17,-25,-153,-66,107,104,-2,158,373,150,46,294,0
390,-162,14,-33,-151,-60,97,95,3,135,352,140,40,280,0
385,-162,10,-34,-156,-69,93,75,8,122,344,134,46,270,0
388,-156,1,-29,-150,-81,87,59,1,137,355,131,51,267,0
393,-161,-5,-29,-146,-84,69,57,-2,145,358,138,49,267,0
392,-182,-4,-32,-159,-83,57,56,6,139,345,140,43,265,0
399,-193,-5,-30,-160,-76,69,56,20,137,344,137,54,264,0
408,-195,-3,-27,-143,-62,85,71,29,146,356,142,81,276,0
411,-204,-6,-27,-142,-46,92,89,31,163,360,151,77,285,0
414,-219,-13,-23,-146,-33,96,94,30,170,343,150,53,284,0
420,-220,-6,-10,-146,-30,108,105,27,157,334,147,62,292,0
432,-211,6,1,-145,-18,121,121,28,140,345,153,90,316,0
437,-214,7,0,-139,1,127,126,31,144,350,159,91,331,0
431,-227,4,-1,-138,-5,124,120,29,158,345,161,77,335,0
429,-231,-4,-2,-154,-24,110,108,21,151,345,162,80,342,0
438,-227,-11,-3,-158,-26,94,99,14,136,349,160,95,351,0
452,-220,0,10,-142,-16,93,105,19,133,359,163,103,359,0
462,-209,12,26,-139,-4,99,110,34,141,376,170,106,365,0
450,-209,-2,22,-147,0,94,108,38,155,380,172,106,360,0
431,-221,-20,6,-149,-12,93,106,31,167,366,165,95,351,0
431,-224,-16,3,-147,-15,107,110,26,161,357,159,80,348,0
426,-224,-11,4,-149,-5,118,107,19,142,352,153,72,336,0
405,-237,-28,-3,-158,-5,118,98,3,125,340,138,63,319,0
404,-240,-35,-5,-161,-5,117,108,-5,123,339,132,53,321,0
424,-222,-20,3,-153,0,126,123,9,141,352,149,65,336,0
430,-215,-10,4,-150,-5,127,120,22,156,359,166,84,343,0
425,-221,-14,3,-154,-12,109,111,12,140,357,165,80,340,0
432,-217,-10,11,-159,-10,96,113,-2,114,358,168,66,343,0
438,-219,5,15,-167,-18,95,104,-9,113,362,179,66,354,0
431,-223,4,8,-167,-20,93,88,-12,125,365,178,74,355,0
431,-213,-5,12,-152,-4,90,92,-4,128,369,177,78,352,0
447,-206,4,24,-138,4,95,109,8,140,374,189,78,362,0
457,-209,12,30,-142,0,97,112,7,146,380,189,74,370,0
443,-206,0,26,-149,-2,92,104,2,133,379,172,77,354,0
427,-206,-11,13,-149,0,97,103,-4,126,364,166,75,335,0
424,-216,-12,0,-152,-6,99,104,-18,124,352,164,51,325,0
428,-215,-16,0,-155,-15,95,100,-25,118,354,156,35,318,0
429,-209,-13,4,-152,-25,103,98,-26,122,363,159,55,326,0
424,-212,-9,1,-158,-31,117,103,-34,120,370,172,70,342,0
423,-213,-7,-4,-169,-33,106,97,-43,108,371,175,44,335,0
428,-217,-6,-3,-168,-38,93,91,-47,108,362,173,28,320,0
422,-224,-4,-4,-162,-51,104,92,-50,119,358,174,52,323,0
408,-232,-12,-9,-165,-61,107,92,-53,113,368,174,64,331,0
407,-234,-16,-11,-169,-59,93,89,-51,106,378,182,43,329,0
421,-223,-11,-3,-162,-55,94,100,-42,124,384,194,41,326,0
426,-216,-10,0,-159,-54,100,110,-28,145,387,190,63,327,0
416,-222,-15,-3,-157,-55,93,108,-31,146,385,170,67,321,0
413,-222,-20,-3,-152,-57,87,104,-42,142,383,163,43,315,0
422,-218,-20,0,-150,-50,94,108,-40,147,385,177,34,320,0
429,-223,-15,3,-152,-49,97,120,-40,142,386,184,59,322,0
425,-226,-10,3,-152,-51,94,122,-49,132,388,173,69,313,0
424,-219,-13,1,-147,-38,102,110,-52,133,388,164,43,314,0
427,-218,-15,4,-141,-31,120,109,-58,128,381,170,27,323,0
426,-221,-5,6,-143,-37,122,118,-73,112,377,171,46,320,0
414,-225,3,0,-156,-34,117,114,-80,105,378,165,50,316,0
411,-224,4,1,-161,-34,123,118,-68,122,380,173,30,325,0
421,-226,3,3,-151,-48,125,124,-58,138,391,191,33,336,0
418,-227,8,-3,-148,-46,122,121,-60,149,400,193,56,337,0
407,-219,9,1,-148,-31,119,125,-62,148,391,179,58,329,0
407,-216,-6,0,-150,-36,104,126,-67,125,381,172,34,323,0
402,-226,-21,-19,-156,-56,89,108,-80,117,376,169,15,322,0
392,-222,-18,-19,-153,-56,91,106,-77,135,376,165,26,322,0
405,-208,-2,1,-138,-33,94,123,-68,142,384,174,42,322,0
422,-205,3,3,-131,-30,89,118,-82,134,390,175,35,327,0
408,-212,-8,-3,-140,-50,90,97,-101,129,377,163,25,327,0
390,-216,-12,-3,-147,-51,94,96,-101,121,357,159,29,314,0
392,-220,0,-6,-150,-46,94,100,-105,112,349,165,20,299,0
392,-229,3,-11,-156,-46,100,93,-115,112,349,163,2,302,0
389,-232,-5,-21,-157,-38,114,91,-115,115,351,164,-5,310,0
398,-227,4,-22,-147,-32,123,107,-107,120,359,175,0,313,0
414,-221,20,-7,-141,-36,121,123,-96,135,375,188,24,321,0
423,-210,18,0,-143,-33,121,123,-84,157,387,195,43,331,0
423,-203,14,-5,-137,-26,121,118,-84,163,393,199,32,332,0
420,-206,20,-4,-133,-30,108,122,-85,155,397,200,32,336,0
425,-199,19,3,-129,-32,94,119,-76,162,396,194,59,347,0
435,-178,24,7,-121,-30,91,105,-75,174,394,191,65,349,0
389,-179,-16,-36,-188,8,55,55,39,51,399,83,82,248,0
395,-182,-19,-38,-191,8,61,47,35,60,396,81,83,246,0
394,-180,-16,-41,-214,-2,49,44,38,61,390,81,73,244,0
387,-184,-5,-39,-221,-6,43,45,37,57,389,82,81,250,0
386,-191,-4,-35,-204,2,54,48,34,66,393,81,97,252,0
392,-194,-10,-34,-194,8,58,53,40,84,403,80,108,249,0
392,-205,-15,-34,-207,3,47,51,37,75,401,74,98,242,0
396,-215,-15,-38,-219,-1,35,47,24,42,383,67,85,239,0
420,-208,-4,-24,-223,11,42,55,37,57,394,76,117,258,0
440,-201,11,-8,-224,30,56,65,58,98,410,91,155,281,0
443,-210,10,-18,-213,37,61,61,54,92,393,85,137,275,0
447,-215,-4,-20,-197,35,58,56,43,65,375,75,112,268,0
452,-221,-7,-9,-198,36,61,52,42,53,379,76,120,284,0
441,-235,-11,-20,-212,36,59,54,42,29,380,70,128,291,0
428,-243,-21,-37,-232,29,51,58,35,17,366,65,123,281,0
426,-245,-25,-30,-247,27,57,55,32,48,359,66,112,274,0
426,-255,-23,-29,-241,29,51,54,33,63,361,70,110,279,0
431,-250,-18,-34,-230,29,36,55,41,38,367,76,128,296,0
449,-220,-11,-12,-227,29,45,62,55,26,380,92,144,318,0
456,-209,-10,1,-228,30,61,74,63,48,385,100,146,321,0
452,-226,-10,-15,-239,28,59,79,59,55,382,94,142,304,0
459,-229,0,-22,-243,28,59,82,62,43,384,94,146,308,0
466,-212,9,-1,-231,32,72,93,74,53,391,101,143,323,0
450,-213,2,5,-222,29,70,89,66,63,387,100,133,308,0
439,-228,-10,-19,-227,22,65,68,55,41,384,88,128,286,0
449,-218,-8,-22,-235,30,72,75,61,40,395,92,141,293,0
459,-194,-3,-2,-237,27,67,91,65,74,400,103,139,304,0
452,-198,-8,4,-231,11,41,73,58,64,386,87,111,292,0
438,-219,-15,-13,-213,8,27,48,45,22,374,68,103,278,0
437,-211,-14,-14,-211,17,34,49,39,26,388,80,133,289,0
446,-192,-15,-5,-221,7,35,57,37,53,406,92,156,300,0
447,-197,-19,-11,-226,0,30,53,37,54,403,85,139,290,0
441,-199,-20,-11,-236,10,41,58,47,48,397,88,112,284,0
432,-186,-14,-10,-241,14,54,67,59,48,399,92,115,290,0
421,-195,-16,-25,-225,21,64,64,52,40,393,76,123,278,0
418,-205,-21,-32,-205,21,64,57,36,38,384,71,116,269,0
426,-192,-18,-26,-212,6,43,60,42,46,394,88,111,276,0
432,-182,-15,-26,-233,-2,29,65,48,40,398,95,111,275,0
426,-185,-17,-30,-230,0,39,60,39,34,394,84,107,275,0
418,-190,-17,-29,-224,0,41,51,38,48,393,78,108,278,0
411,-204,-25,-35,-226,-2,30,46,36,49,379,75,104,257,0
398,-211,-40,-39,-226,6,35,43,28,23,360,58,79,228,0
384,-205,-45,-35,-235,2,42,42,27,11,361,41,70,226,0
381,-207,-44,-36,-248,-3,32,39,32,21,371,42,92,227,0
385,-211,-46,-44,-229,2,26,30,24,30,365,40,92,215,0
387,-204,-47,-42,-207,1,29,23,18,39,364,35,77,216,0
393,-198,-41,-30,-218,6,34,35,33,54,381,50,94,234,0
402,-192,-35,-35,-220,17,35,45,43,54,389,66,127,245,0
405,-191,-30,-50,-222,13,33,42,37,44,383,63,133,249,0
410,-189,-23,-46,-232,8,41,49,45,56,396,71,125,267,0
420,-183,-15,-32,-219,32,65,67,56,64,414,88,126,276,0
417,-184,-20,-34,-205,36,63,65,42,45,395,77,135,256,0
405,-190,-27,-41,-218,8,36,44,31,49,377,66,137,252,0
410,-190,-18,-35,-220,6,39,44,46,65,396,79,124,271,0
422,-187,-11,-34,-218,22,55,55,49,46,400,85,118,276,0
420,-189,-16,-41,-235,20,44,53,38,41,390,80,135,274,0
417,-184,-13,-34,-234,11,32,46,44,71,404,82,140,279,0
415,-183,-14,-31,-214,3,35,51,52,64,407,78,123,271,0
410,-187,-21,-33,-214,-1,34,49,44,41,387,73,117,259,0
408,-185,-18,-30,-225,3,31,38,35,50,380,74,122,258,0
405,-186,-13,-35,-231,3,30,42,32,47,389,73,112,257,0
397,-195,-24,-47,-241,-3,35,49,37,31,386,74,104,255,0
397,-195,-31,-47,-239,1,49,57,48,44,385,86,121,263,0
404,-184,-21,-38,-227,3,48,61,50,65,390,88,121,268,0
400,-184,-14,-38,-230,-4,32,59,43,55,387,79,88,252,0
390,-191,-21,-51,-236,-3,31,57,37,34,382,77,81,240,0
377,-189,-24,-61,-246,4,40,58,34,36,382,75,108,244,0
365,-193,-28,-61,-265,-10,37,48,33,32,380,69,97,235,0
353,-203,-39,-61,-261,-20,30,38,29,16,372,62,55,213,0
351,-194,-37,-62,-240,-6,29,39,16,14,365,58,54,207,0
358,-177,-32,-59,-240,2,31,32,7,18,367,59,80,217,0
365,-178,-42,-60,-243,-5,33,24,8,8,377,65,90,228,0
366,-176,-46,-57,-232,-2,29,37,14,7,383,68,96,238,0
366,-157,-31,-45,-242,-2,28,54,30,31,384,73,94,242,0
367,-151,-25,-47,-268,-9,28,56,38,46,385,81,75,245,0
372,-159,-29,-57,-270,-13,28,56,30,36,396,85,89,255,0
377,-155,-20,-52,-249,-14,28,63,38,35,413,99,129,269,0
374,-143,-13,-39,-234,-9,26,68,54,58,424,113,126,275,0
368,-141,-16,-33,-232,-1,30,53,44,57,411,102,91,262,0
362,-146,-20,-39,-242,1,35,33,19,24,388,87,83,249,0
352,-154,-22,-57,-260,-1,35,24,1,-7,367,78,82,238,0
338,-169,-37,-66,-265,-4,35,25,-10,-13,348,56,57,218,0
332,-175,-51,-62,-256,-3,37,29,-3,-5,346,48,40,207,0
335,-162,-50,-62,-257,-3,35,31,15,7,366,63,63,217,0
331,-157,-45,-66,-260,-20,30,33,17,30,384,67,92,219,0
326,-151,-47,-63,-261,-23,29,36,18,39,384,62,94,217,0
328,-132,-47,-59,-268,-7,32,38,25,18,376,59,79,216,0
325,-125,-50,-60,-266,-14,32,33,22,13,368,48,74,201,0
320,-132,-53,-61,-245,-32,28,28,14,19,364,46,73,196,0
319,-130,-58,-62,-236,-21,23,29,16,7,368,49,78,207,0
325,-123,-62,-59,-259,-10,25,24,18,9,374,46,90,207,0
328,-120,-51,-57,-274,-24,24,23,15,26,376,51,84,201,0
321,-125,-49,-62,-261,-35,11,26,8,13,365,52,56,193,0
301,-139,-72,-68,-259,-33,2,13,-9,-17,343,25,45,163,0
292,-139,-87,-71,-273,-36,6,-3,-20,-35,334,5,49,147,0
300,-127,-75,-69,-276,-39,6,-2,-11,-35,346,21,44,171,0
303,-123,-64,-62,-270,-36,0,4,-5,-19,358,38,45,187,0
290,-122,-68,-61,-274,-46,0,-4,-16,-19,345,31,47,169,0
278,-120,-76,-67,-271,-60,2,-11,-25,-39,332,16,40,149,0
285,-114,-74,-64,-266,-59,2,-5,-24,-38,346,20,39,157,0
290,-104,-67,-61,-270,-57,0,2,-14,-21,359,34,47,167,0
280,-110,-65,-66,-281,-61,3,4,-7,-18,359,39,60,164,0
273,-121,-71,-66,-290,-60,3,11,-9,-19,363,41,65,163,0
278,-125,-70,-72,-285,-57,0,31,-1,-12,368,46,62,166,0
274,-133,-67,-85,-274,-55,14,40,15,-12,364,46,65,160,0
263,-153,-68,-89,-280,-52,25,33,16,-14,357,42,79,152,0
255,-173,-76,-89,-295,-57,7,27,3,-13,347,34,78,150,0
252,-190,-84,-95,-303,-62,-6,20,-5,-34,336,29,67,148,0
261,-202,-81,-94,-310,-59,2,8,-12,-60,331,24,67,151,0
266,-209,-85,-90,-315,-58,2,-3,-14,-53,328,18,82,153,0
259,-216,-102,-96,-313,-65,-10,-6,-13,-35,328,12,96,151,0
255,-216,-113,-94,-311,-65,-10,-4,-8,-37,336,7,90,153,0
266,-202,-104,-86,-309,-58,-2,-1,-1,-43,342,14,87,167,0
272,-195,-96,-89,-313,-58,-1,4,0,-41,343,29,108,179,0
264,-201,-103,-85,-326,-63,-8,6,1,-52,346,29,118,173,0
258,-195,-108,-69,-325,-67,-7,6,0,-80,349,13,103,163,0
258,-188,-107,-72,-317,-78,-5,5,-13,-85,341,11,94,155,0
245,-204,-114,-93,-315,-90,-20,7,-18,-65,327,13,104,154,0
226,-208,-126,-95,-324,-90,-30,4,-12,-71,323,6,110,150,0
221,-191,-130,-84,-341,-88,-25,-2,-24,-97,321,2,99,138,0
227,-185,-119,-84,-344,-96,-28,-6,-39,-100,311,1,80,138,0
227,-186,-116,-88,-326,-100,-33,-3,-36,-93,310,4,79,140,0
214,-187,-129,-92,-326,-108,-31,-8,-38,-103,317,7,92,129,0
200,-195,-145,-93,-337,-121,-32,-16,-48,-111,313,-1,87,118,0
193,-196,-147,-92,-330,-123,-34,-9,-48,-99,310,2,77,118,0
193,-188,-142,-87,-335,-117,-31,3,-38,-83,320,21,100,125,0
191,-188,-140,-81,-345,-123,-34,-6,-38,-82,328,20,123,130,0
199,-178,-133,-75,-331,-127,-37,-11,-53,-100,333,18,105,131,0
206,-163,-127,-69,-315,-124,-37,-2,-60,-110,344,37,100,134,0
187,-175,-129,-78,-320,-135,-49,-10,-68,-102,336,32,109,132,0
157,-195,-144,-98,-345,-155,-65,-27,-89,-104,306,1,86,106,0
143,-195,-158,-101,-360,-158,-60,-28,-98,-117,291,-10,60,83,0
133,-185,-159,-93,-342,-156,-44,-25,-90,-133,294,-7,61,76,0
123,-184,-158,-94,-327,-170,-46,-27,-97,-147,292,-10,58,63,0
113,-190,-167,-97,-333,-182,-60,-26,-110,-148,291,-4,42,56,0
103,-189,-177,-103,-341,-187,-60,-24,-111,-138,295,2,35,54,0
107,-184,-175,-109,-353,-188,-52,-20,-109,-127,285,-13,38,41,0
112,-183,-170,-101,-360,-185,-57,-22,-109,-131,280,-23,36,26,0
103,-179,-170,-95,-340,-189,-64,-20,-111,-133,297,-9,34,26,0
100,-162,-170,-95,-322,-205,-63,-13,-114,-117,313,3,50,28,0
102,-153,-170,-95,-324,-209,-68,-15,-114,-106,311,1,70,14,0
103,-153,-169,-89,-323,-198,-70,-14,-109,-103,308,-1,67,2,0
105,-148,-165,-80,-331,-195,-68,0,-109,-105,311,2,56,-4,0
102,-150,-165,-82,-340,-206,-69,-3,-118,-121,304,2,54,-16,0
96,-157,-169,-92,-329,-210,-68,-17,-125,-131,297,2,60,-18,0
104,-155,-167,-86,-320,-201,-60,-5,-119,-108,307,4,75,-3,0
109,-148,-164,-80,-332,-200,-56,8,-114,-100,314,6,72,-4,0
92,-159,-176,-96,-341,-209,-55,4,-123,-127,304,0,53,-30,0
76,-181,-190,-100,-357,-212,-52,4,-130,-130,295,-6,55,-40,0
81,-185,-190,-95,-366,-210,-56,14,-128,-108,297,-5,73,-32,0
80,-174,-188,-111,-347,-216,-63,16,-128,-114,297,-4,76,-30,0
65,-173,-190,-116,-335,-223,-64,12,-130,-130,294,-3,63,-39,0
74,-173,-182,-106,-350,-227,-65,11,-136,-119,293,-3,52,-38,0
94,-161,-170,-105,-353,-235,-65,10,-141,-117,294,0,55,-26,0
90,-154,-168,-101,-354,-244,-68,5,-140,-129,297,9,64,-28,0
86,-155,-170,-93,-371,-249,-81,9,-148,-120,305,9,67,-32,0
94,-146,-162,-92,-362,-249,-89,18,-155,-109,318,13,64,-25,0
89,-148,-164,-99,-345,-247,-76,19,-150,-121,318,19,57,-22,0
66,-160,-185,-113,-347,-248,-69,14,-152,-139,307,6,58,-36,0
52,-156,-196,-129,-353,-254,-78,15,-167,-143,306,-8,68,-52,0
49,-147,-198,-126,-363,-260,-81,20,-166,-133,309,-6,71,-59,0
50,-146,-201,-119,-364,-257,-77,15,-155,-115,310,-2,75,-60,0
51,-135,-199,-124,-346,-250,-70,15,-156,-101,323,-3,87,-51,0
50,-125,-193,-128,-340,-253,-64,23,-160,-108,331,1,92,-41,0
46,-130,-199,-129,-352,-258,-66,28,-160,-117,325,3,86,-48,0
39,-129,-208,-126,-345,-257,-71,27,-157,-105,326,0,86,-65,0
41,-123,-208,-125,-329,-257,-70,27,-155,-85,329,-8,91,-65,0
38,-127,-209,-131,-345,-264,-74,23,-161,-87,316,-17,82,-64,0
21,-127,-212,-132,-363,-267,-85,20,-166,-98,311,-20,67,-80,0
23,-125,-212,-134,-345,-267,-88,24,-163,-101,321,-13,68,-85,0
36,-125,-216,-144,-333,-268,-78,20,-175,-118,313,-12,75,-82,0
33,-126,-225,-151,-348,-267,-66,14,-192,-134,296,-23,61,-93,0
29,-126,-221,-144,-339,-268,-67,14,-185,-110,304,-18,44,-98,0
43,-119,-209,-129,-313,-263,-66,23,-166,-75,325,3,56,-79,0
59,-103,-198,-116,-322,-259,-66,34,-158,-74,329,5,88,-61,0
60,-91,-189,-114,-336,-271,-82,36,-157,-75,329,-1,97,-59,0
58,-89,-191,-124,-325,-287,-98,32,-161,-73,330,4,73,-67,0
45,-97,-204,-128,-310,-285,-93,25,-174,-107,320,1,51,-73,0
25,-105,-210,-120,-307,-271,-81,26,-178,-120,320,-4,63,-70,0
16,-104,-208,-122,-321,-274,-82,37,-165,-72,328,1,82,-71,0
21,-91,-203,-123,-328,-286,-89,44,-162,-47,327,7,74,-69,0
20,-83,-198,-116,-319,-296,-96,42,-167,-66,334,10,75,-58,0
8,-87,-196,-115,-313,-295,-95,44,-160,-64,351,16,106,-51,0
-4,-82,-197,-117,-310,-286,-90,52,-150,-38,358,19,121,-46,0
-13,-72,-196,-116,-303,-284,-89,49,-163,-41,350,15,98,-40,0
-25,-78,-202,-120,-314,-297,-86,36,-180,-64,339,10,87,-49,0
-36,-90,-208,-125,-329,-303,-86,31,-178,-70,329,7,96,-66,0
-43,-89,-208,-121,-313,-295,-88,36,-180,-67,324,-4,79,-69,0
-39,-79,-205,-118,-299,-295,-90,37,-189,-69,326,-11,53,-65,0
-37,-70,-204,-119,-302,-303,-93,31,-186,-63,325,-11,64,-72,0
-46,-74,-212,-122,-310,-309,-96,28,-188,-69,321,-17,82,-78,0
-52,-85,-215,-125,-329,-315,-96,28,-202,-88,316,-21,65,-69,0
-49,-82,-205,-122,-333,-320,-97,38,-205,-84,313,-14,54,-61,0
-47,-80,-199,-123,-313,-322,-98,43,-197,-69,309,-11,62,-73,0
-53,-85,-209,-128,-315,-323,-98,32,-204,-73,301,-24,62,-83,0
-66,-90,-215,-129,-334,-323,-98,26,-211,-82,296,-37,54,-76,0
-74,-92,-218,-128,-325,-325,-97,32,-213,-85,293,-36,48,-73,0
-63,-81,-212,-129,-309,-325,-95,33,-210,-88,300,-21,53,-66,0
-44,-61,-196,-124,-315,-323,-94,30,-193,-77,311,-19,70,-57,0
-42,-64,-198,-118,-325,-321,-96,33,-191,-62,307,-33,75,-60,0
-48,-83,-207,-122,-320,-321,-96,34,-199,-65,302,-33,68,-65,0
-45,-87,-205,-125,-316,-322,-94,30,-198,-69,304,-24,67,-59,0
-39,-85,-206,-125,-320,-320,-94,28,-197,-69,292,-40,72,-60,0
-41,-93,-217,-126,-317,-315,-95,29,-198,-66,284,-57,80,-69,0
-38,-96,-214,-123,-301,-309,-92,36,-187,-54,297,-43,89,-67,0
-30,-94,-209,-118,-300,-310,-90,46,-173,-41,310,-38,97,-59,0
-34,-111,-226,-121,-313,-307,-88,44,-175,-39,302,-62,109,-57,0
-51,-132,-252,-128,-313,-301,-89,30,-182,-51,283,-76,114,-59,0
-52,-128,-249,-125,-307,-301,-90,34,-184,-59,283,-71,119,-44,0
-40,-125,-235,-114,-307,-299,-86,47,-175,-48,298,-67,141,-28,0
-46,-142,-243,-120,-308,-299,-86,39,-175,-38,292,-76,144,-32,0
-53,-141,-255,-122,-303,-298,-84,32,-185,-50,279,-89,131,-27,0
-43,-122,-252,-108,-308,-294,-71,51,-181,-63,288,-79,149,-7,0
-44,-118,-253,-106,-321,-291,-60,66,-162,-51,304,-58,171,8,0
-55,-124,-258,-116,-316,-290,-64,67,-148,-36,308,-55,167,19,0
-57,-122,-255,-119,-301,-288,-67,68,-149,-33,303,-62,168,17,0
-54,-124,-249,-119,-303,-294,-66,66,-157,-46,293,-65,177,11,0
-36,-117,-242,-112,-310,-299,-66,60,-159,-57,303,-58,179,29,0
-10,-103,-233,-95,-306,-295,-61,65,-157,-42,324,-39,174,54,0
-9,-115,-229,-91,-314,-302,-56,69,-155,-43,325,-31,169,60,0
-20,-131,-234,-102,-322,-306,-55,66,-158,-68,317,-37,171,58,0
-20,-121,-249,-107,-307,-304,-60,63,-169,-66,310,-42,165,46,0
-20,-120,-260,-103,-298,-308,-63,59,-168,-45,302,-53,143,30,0
-18,-125,-252,-98,-303,-304,-57,71,-152,-44,302,-66,139,30,0
-8,-107,-244,-94,-302,-295,-56,84,-150,-52,312,-58,160,36,0
-9,-102,-251,-95,-297,-302,-65,83,-151,-47,312,-50,161,34,0
-12,-125,-261,-99,-311,-314,-70,85,-139,-43,306,-57,142,31,0
2,-122,-262,-100,-326,-314,-69,86,-135,-54,314,-55,132,32,0
13,-101,-262,-98,-315,-314,-67,78,-139,-63,327,-51,143,36,0
12,-92,-251,-96,-295,-307,-62,83,-134,-37,327,-49,158,51,0
24,-84,-238,-90,-286,-299,-59,94,-122,-2,328,-43,151,58,0
39,-79,-244,-88,-293,-302,-64,75,-135,-10,330,-45,130,44,0
29,-88,-259,-93,-305,-308,-69,64,-150,-35,318,-58,120,28,0
25,-90,-260,-91,-300,-303,-64,82,-133,-28,314,-57,132,31,0
39,-72,-256,-89,-288,-296,-58,93,-111,-21,332,-42,146,39,0
43,-63,-254,-93,-302,-294,-58,92,-123,-28,342,-36,132,38,0
40,-72,-257,-95,-318,-294,-59,80,-140,-26,324,-51,110,28,0
34,-91,-275,-104,-305,-294,-61,61,-142,-30,302,-74,106,7,0
15,-109,-297,-121,-293,-299,-65,54,-152,-49,294,-83,103,-11,0
7,-106,-295,-127,-294,-295,-66,60,-158,-51,296,-81,83,-15,0
26,-95,-282,-119,-298,-281,-60,61,-146,-32,306,-74,90,-4,0
43,-92,-282,-109,-297,-275,-55,70,-133,-18,321,-62,128,19,0
51,-90,-284,-100,-293,-281,-58,85,-125,-14,329,-54,140,32,0
62,-83,-275,-94,-292,-281,-61,88,-114,-18,329,-53,133,36,0
70,-85,-269,-94,-299,-276,-58,92,-110,-21,337,-47,135,49,0
72,-89,-273,-95,-289,-276,-57,94,-113,-9,346,-38,146,62,0
76,-85,-270,-94,-279,-273,-58,83,-116,-11,343,-40,149,59,0
77,-91,-266,-90,-288,-272,-60,73,-122,-27,338,-42,140,63,0
74,-98,-273,-91,-290,-274,-62,74,-125,-27,334,-43,126,73,0
78,-95,-277,-93,-284,-261,-50,82,-119,-18,330,-47,130,75,0
85,-90,-270,-88,-282,-247,-32,88,-115,-30,335,-49,150,80,0
74,-93,-280,-88,-277,-248,-32,86,-125,-44,329,-58,137,76,0
58,-98,-299,-96,-266,-255,-39,81,-130,-38,314,-73,105,57,0
61,-100,-297,-100,-267,-258,-39,83,-122,-33,313,-77,102,56,0
71,-96,-293,-98,-276,-257,-37,88,-120,-31,316,-75,122,65,0
74,-87,-295,-91,-275,-250,-35,86,-121,-31,321,-74,131,63,0
82,-84,-286,-86,-269,-241,-29,87,-111,-35,336,-70,119,72,0
97,-89,-279,-89,-274,-243,-31,92,-106,-35,343,-62,105,91,0
107,-84,-281,-85,-267,-240,-30,90,-114,-32,338,-55,113,96,0
111,-65,-277,-64,-247,-229,-22,91,-112,-32,349,-46,137,95,0
114,-58,-276,-64,-253,-225,-24,107,-96,-26,363,-41,143,104,0
119,-64,-275,-80,-269,-235,-33,114,-84,4,364,-35,140,120,0
120,-62,-271,-79,-258,-229,-22,99,-83,25,360,-39,139,114,0
113,-67,-278,-84,-272,-211,-1,88,-91,-1,344,-59,120,85,0
131,-80,-275,-92,-289,-222,-4,96,-86,-18,346,-58,131,98,0
148,-94,-267,-89,-243,-232,-8,96,-84,-1,350,-51,138,122,0
113,-123,-296,-108,-267,-221,1,80,-110,-11,314,-84,81,84,0
97,-117,-307,-112,-348,-246,-12,84,-116,-28,306,-93,74,67,0
153,-43,-260,-50,-278,-279,-35,119,-74,10,366,-39,163,135,0
193,12,-238,-11,-159,-266,-35,135,-53,46,386,-9,200,176,0
171,-8,-268,-47,-178,-252,-30,107,-86,34,346,-41,139,140,0
154,-34,-282,-70,-227,-260,-23,85,-106,22,337,-59,108,128,0
156,-27,-275,-59,-221,-252,-6,93,-91,24,355,-46,126,149,0
152,-25,-277,-69,-240,-242,-1,96,-86,21,358,-45,118,135,0
156,-23,-274,-88,-281,-244,-8,92,-88,15,358,-53,94,112,0
164,-19,-265,-86,-288,-239,-5,96,-84,11,355,-52,92,125,0
171,-24,-261,-85,-281,-238,-3,100,-80,15,351,-44,105,149,0
177,-17,-264,-93,-287,-233,-5,102,-72,20,366,-31,116,156,0
181,1,-265,-94,-307,-224,-1,113,-58,16,380,-29,116,163,0
178,2,-268,-93,-309,-224,2,121,-52,19,378,-45,103,160,0
176,-6,-269,-99,-305,-224,4,113,-53,34,377,-50,108,154,0
182,-2,-261,-95,-325,-217,2,106,-53,38,375,-36,129,169,0
193,-2,-252,-91,-331,-216,-3,101,-54,24,366,-34,116,183,0
201,-5,-250,-92,-306,-219,1,93,-53,19,354,-47,85,172,0
198,-4,-258,-94,-294,-215,6,91,-55,24,349,-61,85,163,0
191,-20,-269,-99,-310,-214,4,90,-59,5,346,-63,99,164,0
191,-31,-270,-104,-320,-218,12,87,-53,-14,347,-61,95,156,0
199,-25,-262,-101,-303,-213,27,87,-47,-2,350,-63,76,153,0
204,-28,-257,-97,-288,-200,33,94,-43,21,349,-59,77,154,0
211,-34,-254,-94,-292,-197,31,97,-36,31,349,-48,95,153,0
222,-25,-251,-93,-292,-202,32,106,-25,38,351,-45,103,160,0
232,-12,-249,-92,-280,-204,31,122,-19,56,363,-40,112,180,0
243,-3,-239,-78,-262,-197,28,124,-11,72,377,-27,133,199,0
246,2,-231,-62,-247,-189,29,123,-4,72,383,-21,138,206,0
243,4,-231,-60,-254,-186,30,123,-3,70,387,-24,134,208,0
252,4,-225,-61,-263,-181,30,120,0,74,392,-18,148,210,0
267,2,-216,-59,-251,-177,27,115,2,80,394,-5,164,216,0
280,2,-216,-59,-236,-182,22,107,-7,76,395,1,175,226,0
296,3,-216,-51,-236,-178,21,104,-14,76,404,3,198,244,0
314,4,-216,-44,-241,-160,26,110,-15,85,415,6,221,265,0
324,-1,-217,-46,-247,-152,29,113,-16,86,417,6,226,275,0
339,-5,-208,-41,-255,-156,30,110,-16,70,411,5,236,287,0
367,13,-195,-29,-253,-152,31,118,-8,63,420,12,253,304,0
387,31,-190,-27,-251,-137,29,119,-7,79,431,14,250,321,0
392,22,-183,-30,-266,-121,33,109,-9,88,425,15,252,338,0
398,16,-177,-28,-267,-125,29,108,-8,84,427,35,280,356,0
412,29,-177,-25,-260,-149,10,107,-10,74,441,51,292,376,0
424,36,-169,-12,-260,-151,0,108,-6,78,455,54,285,394,0
434,36,-158,1,-243,-129,9,110,1,94,458,50,288,393,0
430,37,-157,-1,-229,-124,17,108,-5,93,446,40,286,379,0
415,36,-157,-3,-257,-137,22,113,-9,82,439,42,277,379,0
411,31,-161,-1,-252,-134,29,123,0,82,444,48,277,377,0
406,8,-171,-13,-212,-122,32,120,-5,78,441,43,258,359,0
390,-9,-176,-31,-246,-123,34,115,-20,52,432,33,237,350,0
388,-7,-167,-28,-262,-126,34,116,-12,49,436,36,246,355,0
393,-17,-160,-26,-210,-124,27,109,-5,78,432,40,232,345,0
384,-35,-167,-33,-226,-122,28,108,-12,99,417,30,202,330,0
385,-28,-164,-16,-258,-124,33,119,0,110,426,29,211,329,0
396,-15,-154,4,-209,-122,26,121,19,116,438,40,230,323,0
379,-23,-166,-13,-176,-123,19,108,10,107,415,31,211,299,0
348,-34,-187,-36,-220,-124,25,103,-5,90,392,0,181,274,0
340,-47,-186,-39,-256,-124,21,105,-2,84,396,-6,166,271,0
341,-60,-187,-37,-245,-128,0,98,1,89,393,7,155,276,0
338,-51,-201,-36,-216,-128,0,89,1,93,379,-4,152,264,0
335,-31,-204,-31,-199,-124,6,90,-3,77,384,-21,159,247,0
331,-24,-199,-37,-222,-122,0,84,-15,59,390,-20,147,246,0
327,-29,-196,-47,-250,-123,10,80,-9,86,384,-11,127,249,0
325,-42,-194,-54,-246,-122,30,89,7,114,382,-11,132,241,0
323,-48,-197,-58,-234,-109,34,90,0,96,379,-22,132,230,0
329,-39,-197,-60,-238,-97,31,89,-6,80,378,-25,113,230,0
334,-41,-186,-55,-243,-102,27,89,8,95,393,-9,120,241,0
342,-50,-177,-51,-229,-106,27,92,22,107,405,10,148,259,0
356,-37,-166,-42,-233,-83,47,108,31,123,404,14,150,273,0
362,-31,-159,-39,-256,-62,58,120,41,141,409,19,146,274,0
357,-46,-167,-48,-259,-77,39,114,37,139,420,24,159,274,0
356,-52,-164,-46,-252,-95,32,104,27,132,414,18,158,283,0
366,-42,-151,-33,-241,-83,52,109,30,134,411,18,147,289,0
373,-38,-154,-34,-236,-65,56,116,31,119,417,23,153,284,0
372,-47,-160,-34,-252,-65,52,108,19,91,414,23,162,282,0
363,-51,-159,-30,-264,-69,54,92,13,95,408,12,147,280,0
359,-53,-163,-47,-254,-66,39,88,10,112,404,2,133,274,0
357,-58,-167,-55,-244,-63,35,93,13,113,397,1,143,274,0
357,-62,-164,-38,-243,-59,58,96,27,108,387,5,143,272,0
358,-64,-158,-35,-237,-51,68,102,29,106,390,1,127,268,0
365,-63,-149,-38,-247,-51,59,107,25,96,403,10,138,281,0
376,-61,-144,-32,-266,-61,54,113,33,103,412,27,163,295,0
383,-58,-140,-26,-259,-62,59,113,37,130,409,26,151,292,0
384,-62,-133,-27,-247,-52,60,99,29,131,405,30,116,289,0
390,-62,-126,-30,-248,-54,44,89,29,124,412,36,116,300,0
398,-57,-121,-24,-237,-61,28,92,31,127,419,31,138,304,0
401,-58,-114,-12,-236,-61,39,93,32,112,413,29,132,296,0
397,-62,-114,-18,-260,-58,53,92,31,89,397,30,109,283,0
394,-70,-120,-32,-253,-50,46,92,25,101,392,23,113,280,0
395,-72,-123,-30,-226,-43,51,95,30,124,391,19,128,283,0
399,-71,-125,-28,-231,-51,60,109,47,130,388,27,124,284,0
397,-88,-134,-37,-251,-60,44,107,45,134,388,28,108,284,0
385,-104,-141,-39,-247,-48,33,86,22,121,377,16,94,277,0
383,-93,-132,-35,-242,-33,48,84,18,94,366,9,89,262,0
391,-81,-126,-32,-242,-32,65,92,28,96,364,10,87,252,0
391,-93,-133,-31,-226,-30,66,92,28,111,365,10,88,255,0
386,-97,-128,-33,-221,-35,60,99,38,114,379,17,104,262,0
397,-89,-109,-32,-241,-52,52,106,47,125,401,36,119,268,0
409,-86,-103,-32,-226,-52,54,96,43,143,402,42,121,265,0
406,-89,-108,-32,-197,-30,59,89,47,146,390,31,117,257,0
400,-92,-107,-31,-212,-29,43,94,53,138,392,30,110,252,0
399,-94,-107,-29,-222,-38,34,94,45,131,393,33,101,245,0
400,-95,-110,-35,-201,-32,52,82,31,121,376,28,91,233,0
397,-98,-108,-44,-205,-27,67,80,23,113,361,21,88,232,0
399,-98,-109,-40,-214,-29,65,110,43,127,368,27,94,235,0
411,-94,-109,-33,-204,-29,64,128,64,147,380,29,86,232,0
432,-84,-94,-20,-211,-36,64,101,42,145,381,25,85,241,0
446,-69,-80,-2,-211,-42,58,83,20,136,391,37,116,258,0
444,-64,-77,0,-189,-40,56,94,30,135,402,54,121,260,0
444,-67,-76,-8,-182,-36,59,92,35,130,401,60,97,264,0
453,-64,-69,-3,-184,-37,58,84,30,125,406,66,111,280,0
459,-58,-61,6,-175,-34,58,90,38,138,414,73,135,291,0
462,-60,-57,2,-168,-35,59,91,41,148,412,69,125,291,0
456,-60,-63,-3,-191,-45,45,85,32,145,400,56,100,274,0
443,-66,-78,-5,-214,-44,30,70,23,137,385,43,72,249,0
448,-67,-80,-3,-188,-34,41,65,23,128,384,37,73,253,0
466,-58,-70,0,-150,-28,62,78,32,128,395,50,106,273,0
455,-72,-70,-2,-155,-27,66,81,32,126,390,51,107,268,0
442,-98,-76,-14,-180,-31,62,76,25,120,377,40,80,254,0
453,-96,-76,-16,-171,-30,62,83,25,122,380,38,89,256,0
461,-93,-71,-5,-164,-17,65,92,30,137,386,47,125,267,0
467,-112,-62,-2,-198,-4,73,94,33,142,386,50,137,270,0
478,-122,-52,-5,-211,-3,81,90,34,117,382,43,126,264,0
487,-116,-47,0,-179,5,85,89,45,101,375,50,119,273,0
493,-117,-45,1,-166,20,92,101,57,125,378,65,140,290,0
493,-133,-47,-2,-198,18,89,106,53,141,380,62,156,291,0
484,-151,-55,-8,-219,13,78,91,48,133,373,56,146,294,0
484,-157,-55,-25,-217,26,83,90,59,130,373,71,145,317,0
493,-155,-49,-26,-222,36,94,101,63,126,382,82,165,332,0
488,-157,-50,-7,-219,32,86,101,61,117,383,72,172,329,0
479,-155,-50,0,-215,30,77,94,71,123,382,69,158,334,0
480,-154,-48,-14,-217,32,83,94,74,127,382,74,150,346,0
480,-162,-50,-19,-231,34,93,104,71,118,378,73,158,351,0
486,-158,-48,-8,-252,34,90,111,82,118,387,81,168,355,0
489,-153,-43,-10,-253,28,72,102,80,114,392,91,159,361,0
479,-162,-46,-26,-237,22,58,91,58,116,382,84,147,357,0
475,-160,-47,-30,-234,18,61,92,62,126,380,78,151,351,0
483,-152,-41,-14,-246,19,71,94,79,121,382,82,158,357,0
489,-149,-38,-5,-239,29,82,92,76,116,386,90,155,365,0
490,-143,-31,-5,-234,34,90,92,69,120,397,94,150,367,0
498,-138,-25,-4,-252,23,83,92,71,122,407,95,153,373,0
498,-135,-33,-2,-255,16,68,91,68,122,404,90,155,376,0
491,-128,-40,1,-237,24,63,89,66,133,401,89,161,368,0
485,-124,-44,1,-222,28,68,91,74,138,400,82,157,360,0
477,-127,-51,-3,-218,24,79,95,76,132,392,73,139,357,0
470,-120,-51,-5,-220,26,87,97,74,129,386,72,138,349,0
468,-119,-46,-4,-237,28,88,97,76,114,384,70,140,335,0
454,-132,-59,-14,-250,24,92,94,71,101,375,52,108,319,0
436,-134,-82,-34,-234,21,86,91,67,113,359,36,79,304,0
439,-126,-76,-34,-221,9,68,88,62,122,362,43,99,302,0
452,-124,-52,-14,-219,-4,70,91,57,114,380,61,127,313,0
456,-120,-42,-4,-219,6,88,94,68,125,390,67,130,326,0
461,-102,-48,-4,-230,17,86,92,81,137,397,72,122,328,0
474,-87,-44,2,-231,17,77,87,72,126,407,83,124,324,0
483,-92,-26,7,-202,19,88,89,69,132,409,86,143,327,0
480,-99,-18,4,-195,15,95,96,76,143,401,78,153,330,0
476,-103,-29,1,-219,2,83,94,67,125,389,68,138,322,0
482,-111,-31,1,-219,-1,76,85,57,111,383,65,125,315,0
488,-117,-19,-2,-219,3,84,86,63,121,393,76,136,329,0
487,-121,-18,-3,-237,4,93,92,68,118,399,79,145,331,0
486,-124,-29,0,-228,7,95,90,58,93,381,66,130,312,0
489,-125,-31,-3,-208,7,93,84,43,86,377,64,113,309,0
488,-134,-28,-5,-220,0,85,87,44,105,394,73,116,325,0
485,-145,-24,-1,-237,-2,83,91,58,117,393,74,120,329,0
494,-135,-18,2,-227,0,90,91,61,119,390,74,133,327,0
505,-117,-13,4,-223,-1,86,89,60,128,407,83,153,341,0
500,-120,-15,3,-237,-4,74,90,67,126,409,84,136,345,0
487,-136,-28,-4,-223,-3,72,93,67,113,394,76,111,326,0
475,-143,-44,-10,-206,-6,67,89,64,112,399,69,126,310,0
467,-134,-42,-6,-222,-9,58,85,72,122,407,67,141,316,0
478,-123,-23,-1,-217,-6,75,94,84,125,405,82,129,327,0
488,-123,-17,1,-191,-2,94,96,87,120,406,94,128,328,0
483,-118,-19,1,-199,-3,87,94,76,123,412,91,146,326,0
474,-116,-24,0,-210,-5,85,87,62,125,412,75,149,323,0
470,-134,-30,-6,-198,-4,94,75,55,116,397,66,136,317,0
473,-139,-31,-8,-198,-2,81,75,53,106,384,67,119,311,0
475,-126,-30,-3,-198,-2,62,76,45,98,381,65,105,303,0
467,-126,-28,-2,-189,-2,73,74,45,104,378,61,108,292,0
464,-131,-20,-9,-200,-3,92,84,58,111,377,64,113,286,0
475,-126,-12,-1,-207,-2,88,94,60,103,384,70,103,291,0
487,-119,-11,19,-191,-6,73,89,59,106,398,78,113,304,0
492,-118,-8,14,-181,-24,62,81,67,132,407,87,146,316,0
487,-129,-11,-3,-190,-34,61,67,60,120,399,75,140,310,0
470,-139,-26,-5,-203,-17,74,65,47,83,383,58,100,290,0
463,-136,-28,-1,-210,-1,80,83,52,101,387,58,97,284,0
464,-143,-20,-7,-204,-2,76,85,58,126,394,57,122,287,0
460,-152,-20,-11,-188,-2,87,81,64,113,386,62,120,283,0
467,-134,-20,-4,-175,3,100,93,70,118,391,73,97,287,0
479,-116,-14,1,-166,2,91,91,64,140,402,72,100,298,0
481,-118,-12,1,-167,2,80,75,58,121,397,65,118,298,0
473,-122,-18,1,-182,2,87,75,62,95,391,70,119,293,0
466,-120,-20,4,-186,2,91,77,61,112,393,75,109,289,0
461,-114,-19,5,-166,5,92,76,62,132,395,73,104,286,0
465,-111,-18,5,-148,6,90,86,71,129,399,70,103,288,0
474,-116,-16,9,-151,4,96,103,78,119,403,67,110,287,0
476,-117,-11,9,-165,5,111,109,86,131,410,82,127,300,0
472,-114,-9,8,-169,6,109,107,90,147,422,97,125,317,0
456,-132,-18,-9,-172,4,98,97,69,123,405,75,94,297,0
443,-144,-26,-16,-171,-3,100,83,47,100,368,53,78,269,0
455,-134,-19,-9,-167,-8,98,80,48,108,372,61,83,272,0
460,-143,-16,-18,-175,4,98,79,54,104,389,66,64,271,0
449,-163,-18,-19,-191,1,106,80,51,96,382,60,58,267,0
460,-154,-12,0,-190,-24,86,86,58,125,382,70,102,281,0
482,-139,-1,6,-162,-21,66,89,76,149,399,81,127,282,0
486,-144,3,-4,-143,2,86,93,82,146,407,84,118,281,0
481,-157,-3,-4,-142,12,99,92,75,145,398,79,128,294,0
481,-168,-14,-3,-146,17,87,73,61,136,383,59,141,285,0
485,-162,-18,-1,-152,31,88,65,62,120,382,54,144,276,0
491,-154,-14,4,-158,36,99,75,72,114,391,71,152,289,0
496,-172,-15,-1,-156,36,95,78,70,119,387,71,150,295,0
494,-188,-18,-1,-166,34,93,80,63,123,374,57,142,294,0
498,-184,-17,1,-192,33,112,93,72,127,384,59,157,313,0
506,-176,-8,-1,-190,38,124,105,86,130,399,76,181,339,0
510,-176,-5,0,-179,34,118,102,88,120,399,87,181,348,0
508,-178,-12,1,-196,29,111,95,88,109,396,89,162,349,0
494,-186,-8,-5,-209,30,104,96,76,100,400,89,152,350,0
487,-191,-2,-10,-207,33,96,94,62,93,396,87,158,350,0
493,-187,-6,-10,-216,29,94,81,58,87,388,87,157,351,0
494,-184,-5,-7,-214,24,95,80,61,86,397,89,153,351,0
487,-178,10,-4,-202,32,94,92,62,93,411,88,155,350,0
490,-165,16,-1,-227,37,94,90,67,96,412,94,153,361,0
500,-160,8,3,-246,32,94,72,71,82,412,98,155,366,0
491,-174,-3,-8,-217,29,92,58,62,65,409,85,158,344,0
475,-187,-18,-30,-204,21,87,59,62,76,396,68,144,327,0
466,-180,-26,-35,-223,5,81,62,64,91,382,67,131,335,0
464,-177,-23,-28,-227,-6,78,60,48,79,382,70,134,340,0
465,-177,-19,-31,-226,-6,80,62,34,62,387,74,139,339,0
466,-164,-13,-33,-243,-5,86,67,40,58,395,84,148,348,0
466,-148,-11,-25,-247,-5,92,73,41,59,392,81,153,353,0
466,-145,-11,-23,-220,-2,92,82,33,64,379,73,133,348,0
459,-137,-9,-26,-200,1,93,90,45,65,392,88,114,350,0
457,-133,-6,-28,-217,2,93,90,55,63,413,102,121,352,0
457,-148,-6,-32,-237,-2,82,71,49,63,406,92,124,339,0
451,-154,-8,-34,-233,-3,75,55,45,74,393,82,117,333,0
450,-144,-3,-31,-228,2,84,59,53,84,400,86,124,350,0
457,-143,8,-31,-245,5,93,63,56,76,407,86,129,356,0
446,-152,7,-37,-260,5,90,58,43,63,396,76,109,338,0
432,-157,-6,-41,-250,3,86,55,37,64,385,67,100,327,0
444,-156,-1,-37,-243,3,89,59,52,72,393,67,125,331,0
454,-152,11,-33,-251,11,88,70,61,75,405,73,144,333,0
447,-152,9,-43,-258,22,87,78,58,68,407,75,141,336,0
450,-151,9,-50,-268,29,93,82,72,67,413,87,145,350,0
456,-151,17,-48,-277,32,99,94,84,75,420,99,143,356,0
445,-163,15,-55,-272,34,98,97,67,78,404,83,135,345,0
434,-175,7,-66,-269,34,93,77,59,72,389,72,143,343,0
445,-166,13,-61,-281,34,95,72,68,75,403,91,152,354,0
448,-158,15,-58,-285,33,96,76,62,59,405,96,131,356,0
435,-174,3,-63,-291,26,80,61,46,17,379,73,115,347,0
428,-186,-5,-62,-309,18,67,50,41,26,372,70,125,343,0
426,-189,-12,-65,-314,25,85,57,43,60,383,75,114,334,0
424,-194,-17,-68,-299,33,103,62,52,56,382,71,99,328,0
431,-190,-5,-58,-283,18,78,62,62,51,382,73,115,341,0
435,-181,1,-58,-285,-6,53,61,59,57,383,74,130,342,0
423,-180,-12,-67,-295,-2,71,55,52,46,380,70,126,334,0
419,-177,-9,-61,-293,15,95,69,57,44,391,83,121,346,0
431,-176,9,-49,-279,9,93,93,65,65,396,91,123,354,0
432,-176,10,-46,-261,-1,89,94,62,74,380,74,128,337,0
430,-159,7,-34,-252,4,88,85,63,73,384,75,143,332,0
438,-144,16,-24,-253,7,71,82,68,73,395,86,139,343,0
439,-149,12,-28,-251,1,61,73,57,68,376,71,110,336,0
427,-152,-8,-31,-252,-1,64,59,36,48,357,47,100,317,0
416,-148,-17,-29,-257,8,63,42,19,22,361,44,104,303,0
409,-151,-7,-29,-237,8,64,38,18,29,366,48,99,302,0
406,-159,-7,-31,-222,2,65,45,19,50,356,41,84,305,0
415,-158,-12,-33,-246,-1,64,46,15,45,358,45,90,311,0
419,-154,-2,-28,-260,2,76,51,20,49,377,68,114,325,0
411,-159,-2,-29,-248,4,78,62,35,66,377,78,114,324,0
410,-165,-11,-38,-243,-2,61,61,31,66,364,64,95,307,0
414,-164,-1,-36,-244,0,66,69,29,58,373,59,91,309,0
415,-156,11,-29,-245,20,92,93,48,57,390,69,98,325,0
417,-150,12,-31,-248,33,92,94,50,60,385,74,103,319,0
419,-150,11,-30,-235,31,71,80,40,66,376,73,106,308,0
418,-151,8,-25,-217,30,65,72,41,74,381,64,96,313,0
420,-151,2,-31,-223,36,66,66,40,80,381,51,88,313,0
427,-152,4,-32,-236,26,63,51,38,87,375,49,105,305,0
420,-152,3,-26,-245,4,52,32,32,65,367,48,107,301,0
400,-158,-11,-35,-251,-6,49,24,12,31,362,39,74,289,0
385,-165,-21,-42,-237,2,59,24,5,38,360,35,59,278,0
388,-163,-22,-39,-229,3,64,23,15,67,361,37,73,273,0
393,-162,-15,-39,-231,2,66,31,18,72,365,38,86,276,0
386,-172,-8,-47,-231,14,82,53,21,61,363,43,76,283,0
380,-175,-10,-55,-239,17,99,70,34,55,365,49,59,287,0
379,-176,-17,-54,-239,12,91,83,53,68,380,50,71,286,0
379,-178,-21,-45,-223,7,71,94,65,94,387,54,94,286,0
386,-169,-13,-37,-220,-2,63,98,66,94,380,62,96,288,0
405,-161,6,-35,-218,-4,66,97,57,74,383,71,93,295,0
420,-158,20,-23,-206,2,62,85,51,79,391,76,104,311,0
429,-149,19,-1,-213,2,54,64,41,85,384,72,115,315,0
431,-145,13,3,-211,-2,54,49,29,78,380,66,130,301,0
429,-160,18,-1,-191,-1,57,40,28,78,385,71,141,301,0
432,-178,24,0,-193,11,54,30,27,71,382,74,129,310,0
438,-184,17,3,-202,29,56,26,29,60,377,64,127,307,0
442,-184,6,2,-209,31,59,39,32,73,381,62,151,303,0
437,-193,-5,-10,-217,28,60,53,31,82,379,63,171,313,0
431,-207,-10,-18,-202,34,62,57,37,61,374,63,160,320,0
436,-208,-6,-10,-193,36,67,68,56,56,379,63,140,318,0
433,-211,-9,-14,-216,33,70,88,65,70,374,58,144,311,0
423,-219,-18,-33,-238,37,70,89,63,72,356,52,157,307,0
426,-217,-16,-31,-228,39,72,74,68,53,351,53,139,313,0
436,-210,-9,-23,-207,35,78,72,67,37,356,59,116,313,0
430,-217,-12,-30,-214,34,78,72,55,39,349,54,120,302,0
423,-224,-14,-32,-239,36,69,56,47,47,338,42,125,304,0
431,-209,0,-21,-238,34,63,41,43,38,345,44,128,318,0
437,-194,8,-13,-230,30,66,46,33,27,357,64,125,317,0
432,-205,-4,-21,-238,30,68,44,17,19,346,60,104,306,0
425,-220,-9,-32,-232,28,59,25,2,-3,332,39,101,308,0
432,-209,3,-30,-224,22,53,22,-3,-9,346,53,116,320,0
437,-193,1,-22,-232,12,55,34,9,12,361,75,114,325,0
437,-189,-13,-17,-231,6,59,34,20,28,356,65,118,321,0
438,-183,-6,-20,-225,16,59,38,27,44,354,58,136,317,0
427,-189,-1,-28,-228,17,63,59,27,47,358,61,124,310,0
407,-206,-18,-35,-236,0,63,63,19,10,354,58,90,295,0
401,-210,-30,-37,-249,-6,60,57,17,-18,352,58,87,288,0
406,-198,-23,-35,-247,4,62,60,20,3,361,60,103,289,0
401,-192,-18,-36,-227,3,63,64,24,29,367,54,99,287,0
387,-196,-20,-50,-232,-2,64,60,31,32,358,55,85,287,0
371,-204,-29,-60,-250,0,63,53,28,23,349,56,87,280,0
372,-205,-28,-52,-251,-2,61,53,11,15,361,52,97,268,0
390,-194,-13,-40,-251,-3,61,58,6,17,379,65,102,280,0
397,-185,-2,-33,-246,-3,64,54,10,20,379,83,105,292,0
389,-181,-5,-32,-229,-2,62,45,2,24,371,80,94,285,0
383,-186,-13,-43,-226,0,60,40,-1,32,367,70,85,280,0
378,-197,-18,-46,-232,-2,54,34,4,32,367,66,91,283,0
379,-192,-22,-42,-235,-4,42,32,7,26,364,60,95,276,0
382,-182,-26,-47,-247,-5,31,35,5,20,351,50,93,268,0
384,-189,-22,-46,-256,-9,32,32,3,5,346,52,90,269,0
394,-199,-12,-33,-240,-9,47,40,10,14,360,67,95,279,0
404,-192,-11,-33,-217,2,62,56,29,51,365,73,109,288,0
397,-182,-23,-51,-225,7,64,54,35,47,346,56,103,281,0
381,-191,-34,-59,-250,2,62,52,24,15,341,36,88,270,0
372,-210,-42,-61,-249,2,66,49,21,20,343,29,87,263,0
377,-207,-44,-69,-242,6,62,32,19,29,339,34,87,264,0
396,-190,-26,-53,-252,9,59,38,17,22,360,54,96,287,0
402,-186,-5,-31,-237,13,63,53,23,24,382,71,119,307,0
386,-191,-12,-46,-228,6,50,30,12,8,362,61,112,295,0
378,-201,-27,-72,-260,-6,32,4,-8,-5,344,50,86,280,0
383,-208,-26,-57,-257,-7,31,8,-9,22,356,55,92,281,0
381,-196,-24,-35,-213,-6,31,11,-1,38,353,58,107,278,0
385,-176,-20,-33,-214,-8,29,4,-1,9,352,67,99,290,0
401,-169,-7,-29,-238,-4,34,12,-1,-2,379,80,104,312,0
403,-167,6,-26,-247,-6,36,17,1,24,383,84,127,311,0
397,-163,11,-27,-257,-10,28,10,5,37,367,81,126,303,0
403,-154,13,-24,-248,-1,32,22,13,27,370,87,100,317,0
405,-145,11,-19,-227,6,53,43,21,29,371,87,104,323,0
389,-156,1,-27,-236,1,68,32,9,16,352,71,113,297,0
365,-177,-12,-46,-261,-1,64,13,-13,-21,337,60,84,270,0
353,-188,-18,-54,-275,-2,59,22,-19,-31,331,62,45,267,0
349,-199,-21,-58,-282,-6,59,27,-22,-10,321,58,38,260,0
338,-208,-26,-66,-289,-11,46,20,-29,-13,319,47,56,245,0
337,-201,-24,-68,-293,-13,32,25,-21,-22,337,60,63,254,0
359,-184,-11,-61,-283,-7,30,34,1,4,361,84,67,282,0
375,-174,-4,-54,-258,-2,33,29,2,16,365,86,88,294,0
370,-175,-8,-56,-258,-11,33,14,-7,8,357,78,104,285,0
365,-184,-7,-57,-273,-28,13,2,-10,14,353,73,77,272,0
367,-178,-7,-55,-268,-36,-7,-2,-7,27,352,68,51,268,0
372,-151,-11,-52,-273,-38,6,4,1,28,355,72,83,274,0
376,-143,-8,-41,-278,-24,26,15,9,30,365,75,105,280,0
375,-153,-2,-36,-248,-12,26,27,17,33,366,67,79,281,0
365,-154,-10,-49,-239,-13,30,27,9,17,349,60,61,264,0
345,-159,-19,-62,-276,-12,46,27,-4,3,334,60,60,247,0
328,-181,-22,-73,-281,-6,58,35,-12,-10,329,48,46,239,0
318,-200,-33,-92,-264,-4,60,27,-26,-28,318,27,23,222,0
309,-207,-46,-99,-276,-7,58,12,-40,-38,305,18,10,208,0
308,-202,-39,-80,-271,-5,60,19,-41,-36,305,18,13,213,0
326,-184,-23,-65,-247,-1,63,31,-29,-22,316,21,31,222,0
347,-171,-17,-62,-250,-8,55,27,-20,-9,326,32,37,233,0
359,-166,-10,-63,-271,-25,38,22,-20,-14,331,45,24,245,0
365,-158,7,-56,-267,-32,24,22,-15,-27,340,63,40,251,0
371,-152,17,-35,-261,-21,29,24,-3,-11,354,81,70,268,0
376,-143,17,-26,-267,-12,47,32,11,26,366,84,73,284,0
374,-146,9,-41,-258,-20,47,37,18,36,361,76,56,269,0
356,-168,-10,-62,-236,-21,39,33,18,17,345,67,48,245,0
337,-181,-19,-65,-218,-4,50,31,16,5,332,56,36,231,0
338,-174,-10,-60,-236,5,62,31,9,7,326,45,13,221,0
348,-177,-8,-61,-262,-2,61,32,1,-5,317,42,-4,212,0
346,-186,-12,-60,-251,-5,60,35,-2,-21,302,39,-15,208,0
339,-175,-9,-60,-232,-5,65,39,1,-13,300,36,-10,207,0
340,-173,-6,-69,-248,-6,68,50,1,2,303,37,-3,206,0
336,-191,-15,-73,-264,-10,72,56,4,12,302,38,-11,207,0
333,-188,-17,-63,-242,-13,66,43,4,11,304,43,-5,210,0
349,-160,-2,-55,-223,-11,63,32,0,0,317,49,17,225,0
369,-147,16,-49,-231,-14,54,28,-3,-5,327,59,22,242,0
373,-149,15,-37,-245,-24,32,8,-7,3,324,62,23,244,0
371,-141,3,-34,-243,-23,24,-6,-5,13,319,58,37,229,0
361,-135,-4,-45,-240,-12,31,10,-3,9,326,53,31,221,0
347,-149,-7,-58,-258,-10,29,15,-2,-3,337,55,21,225,0
343,-170,-14,-68,-252,-12,29,12,2,11,343,59,44,230,0
348,-180,-12,-65,-223,-6,50,31,13,50,353,66,72,238,0
348,-192,-7,-64,-228,17,67,46,22,49,361,73,72,240,0
346,-218,-14,-83,-263,25,64,35,13,7,339,64,51,226,0
341,-243,-22,-98,-274,17,63,27,3,-9,310,47,49,212,0
342,-263,-16,-94,-263,26,71,31,-3,1,300,45,53,212,0
353,-273,-14,-93,-265,32,66,27,-10,-4,292,50,38,221,0
363,-262,-21,-84,-274,29,58,25,-10,-19,292,52,48,237,0
378,-245,-13,-62,-279,28,63,29,1,-20,313,55,83,261,0
397,-241,4,-58,-282,30,65,31,9,-12,327,68,98,282,0
404,-238,9,-57,-271,28,60,29,12,-10,334,81,103,299,0
407,-224,7,-47,-252,29,58,28,18,-13,348,89,127,307,0
411,-218,6,-50,-262,31,55,30,22,-3,351,88,134,309,0
408,-222,-1,-49,-275,29,52,29,21,13,347,74,119,308,0
400,-225,-9,-39,-252,31,54,31,26,14,353,69,125,308,0
398,-218,-13,-41,-233,33,57,43,43,11,354,70,138,309,0
401,-212,-15,-42,-247,34,57,49,52,16,352,65,118,306,0
403,-210,-18,-32,-256,32,60,45,38,23,354,63,102,305,0
399,-214,-20,-33,-269,30,62,39,29,9,350,70,122,302,0
388,-229,-21,-50,-280,31,61,47,34,-11,340,71,125,291,0
383,-237,-21,-59,-259,28,61,53,27,-5,333,68,97,277,0
381,-233,-24,-51,-247,29,61,41,15,4,329,65,87,262,0
376,-233,-24,-48,-261,24,61,30,14,-8,324,67,83,257,0
377,-236,-19,-55,-272,14,61,33,14,-22,326,75,69,269,0
383,-224,-17,-48,-275,10,60,35,13,-10,344,79,83,277,0
390,-211,-16,-33,-274,9,60,29,18,5,353,85,105,275,0
394,-210,-15,-31,-256,7,60,30,18,4,348,91,95,278,0
388,-214,-19,-37,-244,5,55,35,17,-6,350,92,85,276,0
380,-216,-25,-36,-270,0,54,41,20,-7,355,88,94,269,0
390,-206,-25,-30,-276,-2,60,42,17,1,349,85,96,266,0
398,-191,-21,-30,-235,5,62,44,14,7,352,85,86,267,0
386,-184,-18,-31,-220,8,61,60,28,16,359,94,82,268,0
380,-184,-19,-28,-241,4,63,63,30,16,349,92,93,262,0
386,-181,-23,-25,-246,8,62,43,12,-9,346,81,92,252,0
382,-179,-21,-31,-250,14,62,41,10,-25,359,82,68,249,0
372,-184,-22,-36,-253,10,63,51,20,8,364,81,54,247,0
368,-190,-28,-36,-230,4,62,41,17,38,357,72,76,242,0
373,-187,-24,-32,-236,3,60,29,9,18,355,74,98,243,0
380,-183,-20,-31,-269,-1,54,28,11,-2,354,75,84,241,0
386,-185,-23,-33,-259,-2,48,29,14,9,351,72,61,236,0
384,-192,-24,-32,-226,1,54,35,10,5,352,68,59,230,0
381,-205,-21,-34,-230,4,59,43,8,-14,354,69,73,228,0
391,-206,-22,-37,-255,3,55,40,14,-1,364,79,92,240,0
397,-191,-21,-36,-256,6,54,44,24,27,372,84,102,250,0
390,-185,-21,-35,-254,8,57,44,17,24,362,77,87,246,0
384,-190,-26,-36,-272,8,51,29,2,-7,342,63,68,239,0
388,-197,-31,-38,-278,8,39,25,-1,-27,334,60,65,238,0
382,-204,-34,-46,-268,3,36,27,3,-20,344,64,73,241,0
367,-214,-38,-61,-272,1,37,19,-6,-25,348,60,71,238,0
362,-217,-47,-63,-285,-1,31,11,-18,-45,333,53,56,231,0
377,-199,-37,-42,-288,-14,27,13,-16,-44,328,66,58,237,0
388,-187,-16,-29,-286,-20,30,11,-17,-31,343,78,69,249,0
376,-198,-23,-50,-285,-17,29,7,-28,-33,343,66,59,244,0
367,-199,-43,-62,-278,-15,33,14,-26,-34,335,60,52,232,0
375,-181,-37,-37,-271,-14,47,30,-5,-27,343,66,66,239,0
375,-179,-16,-27,-279,-7,45,39,2,-38,351,67,63,250,0
370,-182,-16,-35,-302,-17,34,33,-5,-43,348,76,57,249,0
370,-181,-24,-36,-300,-24,33,32,-1,-30,342,80,71,240,0
360,-184,-28,-45,-276,-13,32,30,-4,-29,333,65,60,222,0
345,-184,-35,-59,-286,-16,28,13,-22,-46,322,58,44,209,0
342,-181,-42,-57,-302,-23,30,6,-26,-59,314,50,49,209,0
336,-183,-44,-56,-286,-12,33,9,-25,-66,308,32,37,203,0
329,-184,-47,-64,-272,-5,34,12,-29,-62,308,28,20,184,0
333,-182,-49,-66,-279,-19,32,9,-26,-62,304,31,30,178,0
331,-179,-48,-62,-284,-22,32,6,-26,-78,295,24,33,185,0
322,-173,-47,-58,-301,-14,37,10,-30,-76,293,24,27,181,0
321,-167,-44,-58,-310,-22,38,20,-22,-51,298,32,37,172,0
315,-165,-45,-59,-276,-26,34,22,-17,-57,302,36,30,172,0
310,-159,-49,-58,-262,-22,34,19,-25,-73,305,39,15,172,0
318,-153,-46,-61,-305,-25,35,22,-28,-65,304,42,25,171,0
315,-154,-46,-62,-325,-34,31,10,-30,-77,296,28,27,168,0
292,-167,-64,-65,-294,-36,24,-5,-42,-93,285,14,4,156,0
278,-181,-75,-79,-284,-35,26,-6,-51,-87,275,13,-4,136,0
276,-187,-72,-91,-298,-43,25,-3,-52,-102,268,17,2,130,0
274,-186,-70,-90,-312,-56,10,-6,-48,-115,272,19,-6,139,0
274,-181,-73,-85,-326,-60,-1,-2,-45,-88,284,27,-1,150,0
271,-182,-73,-90,-323,-56,14,4,-44,-66,289,28,29,152,0
261,-184,-73,-97,-307,-46,29,4,-44,-66,289,25,30,147,0
260,-189,-71,-96,-299,-34,29,4,-44,-68,291,37,7,150,0
262,-185,-70,-95,-295,-35,22,9,-41,-86,299,50,12,156,0
267,-165,-62,-91,-297,-42,22,26,-34,-89,316,55,31,161,0
274,-147,-46,-74,-295,-33,27,37,-20,-48,326,69,48,167,0
273,-148,-52,-67,-275,-29,18,26,-23,-33,314,66,52,159,0
258,-153,-75,-90,-280,-47,0,8,-48,-65,294,36,18,135,0
241,-160,-77,-102,-301,-58,-5,4,-63,-85,287,18,-12,119,0
233,-167,-71,-93,-291,-60,1,4,-61,-77,279,23,6,116,0
232,-165,-76,-94,-281,-63,3,3,-60,-70,272,25,9,110,0
229,-159,-80,-99,-294,-65,0,2,-81,-87,273,16,-20,103,0
219,-163,-83,-100,-306,-73,-1,-1,-98,-113,265,4,-17,91,0
207,-168,-96,-111,-306,-82,0,-2,-97,-117,253,-4,-10,71,0
197,-171,-109,-123,-298,-80,-11,-13,-98,-104,249,0,-37,66,0
195,-166,-109,-121,-296,-78,-28,-25,-112,-103,252,10,-39,84,0
208,-152,-93,-105,-305,-84,-28,-17,-104,-102,263,21,-1,96,0
214,-147,-84,-95,-302,-85,-25,-10,-85,-92,278,28,28,95,0
205,-147,-97,-98,-298,-84,-32,-22,-90,-77,290,23,24,96,0
204,-146,-106,-99,-304,-90,-34,-22,-94,-74,292,23,9,92,0
200,-148,-105,-104,-299,-94,-32,-14,-91,-88,281,20,4,69,0
179,-153,-107,-121,-303,-92,-36,-25,-108,-93,266,1,-4,42,0
164,-156,-113,-128,-322,-91,-36,-24,-125,-96,259,-11,-16,25,0
159,-153,-120,-126,-323,-104,-36,-20,-123,-119,250,-13,-28,8,0
146,-155,-125,-135,-315,-117,-40,-26,-120,-136,238,-21,-42,-6,0
137,-158,-120,-137,-310,-107,-33,-14,-127,-126,246,-22,-49,-5,0
139,-153,-111,-126,-307,-104,-27,2,-122,-111,262,-4,-26,2,0
138,-147,-112,-128,-314,-117,-29,0,-105,-96,265,6,3,1,0
133,-152,-117,-133,-315,-119,-31,-6,-109,-86,261,-1,-11,1,0
124,-156,-120,-134,-307,-112,-32,-3,-126,-105,256,3,-40,2,0
113,-153,-123,-137,-311,-116,-33,-5,-126,-118,264,17,-31,3,0
116,-149,-120,-134,-307,-117,-33,-5,-115,-106,275,25,-2,7,0
113,-150,-118,-129,-295,-113,-34,-3,-119,-101,267,20,-12,-1,0
92,-148,-126,-140,-310,-119,-36,-3,-132,-113,251,10,-43,-13,0
82,-146,-127,-139,-319,-125,-35,-4,-137,-116,253,8,-39,-15,0
84,-152,-124,-132,-296,-122,-37,-7,-136,-109,262,11,-21,-17,0
67,-162,-132,-146,-297,-124,-37,-9,-143,-123,248,4,-38,-38,0
48,-173,-133,-153,-318,-134,-34,-4,-151,-134,234,-2,-56,-49,0
55,-184,-127,-143,-319,-140,-46,-7,-152,-126,238,9,-33,-41,0
56,-194,-139,-148,-321,-149,-62,-16,-158,-112,239,10,-9,-48,0
47,-203,-148,-156,-331,-154,-64,-12,-158,-105,228,-3,-14,-66,0
47,-211,-139,-145,-316,-138,-59,-3,-149,-106,226,-1,-1,-69,0
49,-218,-141,-133,-294,-122,-60,-5,-151,-116,230,2,34,-63,0
39,-219,-148,-133,-296,-123,-61,-4,-151,-118,228,-2,34,-65,0
28,-227,-143,-135,-304,-122,-56,7,-140,-105,226,5,23,-55,0
20,-236,-145,-137,-306,-117,-56,7,-137,-103,227,12,52,-35,0
15,-229,-153,-140,-304,-118,-54,1,-146,-108,223,14,69,-28,0
15,-225,-150,-146,-302,-118,-52,0,-154,-120,220,13,49,-32,0
1,-238,-147,-138,-301,-117,-55,2,-164,-142,223,8,48,-36,0
-10,-234,-149,-121,-302,-122,-54,4,-166,-145,226,10,64,-28,0
-9,-215,-147,-124,-308,-125,-48,3,-161,-129,226,17,63,-19,0
-25,-216,-151,-138,-301,-119,-55,3,-167,-132,218,10,61,-25,0
-44,-226,-166,-133,-292,-124,-64,1,-179,-160,215,0,60,-35,0
-42,-218,-163,-120,-304,-143,-60,-1,-182,-180,229,9,63,-29,0
-37,-206,-153,-124,-315,-156,-60,1,-180,-167,240,12,75,-24,0
-46,-205,-156,-128,-308,-155,-69,2,-179,-145,227,4,66,-33,0
-52,-198,-159,-123,-310,-155,-77,2,-184,-148,214,3,44,-37,0
-50,-190,-161,-124,-321,-159,-83,3,-185,-159,214,1,49,-37,0
-54,-193,-165,-136,-318,-159,-84,4,-180,-155,219,-1,73,-35,0
-68,-191,-164,-136,-314,-163,-80,1,-186,-160,224,0,72,-34,0
-76,-181,-164,-125,-312,-165,-81,-1,-200,-176,220,2,50,-35,0
-78,-189,-169,-128,-301,-164,-75,0,-201,-165,213,-1,53,-39,0
-92,-200,-173,-146,-307,-173,-66,5,-196,-152,216,-2,69,-55,0
-106,-194,-178,-154,-336,-185,-66,12,-201,-161,219,-4,61,-58,0
-97,-192,-174,-148,-339,-187,-71,20,-200,-170,218,-2,55,-41,0
-97,-192,-171,-141,-307,-185,-68,27,-196,-166,225,5,77,-40,0
-110,-184,-178,-139,-301,-196,-62,29,-202,-154,224,2,82,-60,0
-113,-182,-185,-141,-329,-212,-67,26,-201,-135,216,-3,55,-64,0
-112,-187,-188,-146,-336,-217,-69,27,-196,-121,227,3,45,-62,0
-119,-184,-192,-149,-312,-213,-67,30,-196,-130,237,7,65,-65,0
-127,-178,-195,-143,-298,-220,-77,30,-201,-150,224,6,64,-62,0
-138,-182,-200,-140,-302,-235,-92,28,-207,-150,212,-3,32,-76,0
-144,-186,-205,-146,-313,-244,-92,19,-218,-133,216,-12,30,-95,0
-133,-182,-204,-143,-327,-255,-88,16,-223,-140,215,-3,59,-90,0
-128,-176,-198,-139,-344,-264,-91,21,-224,-164,212,8,48,-84,0
-142,-182,-202,-150,-333,-259,-89,10,-234,-156,214,-9,19,-93,0
-155,-190,-212,-157,-302,-257,-87,-5,-241,-136,203,-27,26,-103,0
-163,-187,-222,-152,-301,-263,-89,4,-238,-139,188,-29,34,-112,0
-164,-182,-220,-151,-321,-255,-79,22,-233,-142,197,-24,23,-114,0
-157,-183,-211,-149,-325,-248,-65,27,-229,-135,219,-21,41,-98,0
-161,-184,-214,-144,-311,-257,-66,29,-229,-134,219,-18,61,-93,0
-170,-180,-216,-144,-303,-262,-71,31,-232,-141,211,-13,46,-99,0
-167,-180,-211,-140,-311,-263,-74,34,-230,-137,210,-19,38,-95,0
-167,-185,-212,-127,-329,-269,-72,37,-230,-120,209,-29,51,-102,0
-174,-188,-220,-124,-328,-269,-71,32,-241,-123,208,-28,44,-115,0
-172,-186,-225,-137,-316,-274,-84,29,-254,-142,205,-30,29,-112,0
-170,-184,-232,-141,-317,-285,-88,28,-254,-137,203,-37,34,-108,0
-167,-183,-225,-128,-313,-279,-69,36,-245,-124,212,-21,43,-104,0
-148,-171,-205,-110,-289,-265,-61,46,-239,-122,221,2,58,-87,0
-136,-164,-209,-110,-284,-270,-68,43,-244,-116,219,-5,59,-84,0
-151,-174,-229,-122,-310,-283,-65,35,-251,-111,213,-19,49,-93,0
-167,-187,-234,-124,-317,-293,-70,33,-254,-111,210,-19,49,-97,0
-163,-180,-229,-124,-295,-298,-87,32,-262,-130,209,-19,40,-102,0
-156,-172,-231,-125,-288,-296,-92,31,-266,-160,211,-19,23,-105,0
-162,-173,-241,-125,-296,-300,-89,34,-261,-148,213,-17,27,-108,0
-164,-170,-256,-124,-299,-305,-89,32,-261,-114,203,-28,40,-120,0
-147,-163,-256,-124,-304,-306,-87,31,-266,-113,199,-37,40,-124,0
-134,-153,-246,-116,-299,-304,-78,43,-257,-112,213,-23,48,-115,0
-134,-151,-244,-112,-285,-308,-81,44,-258,-114,211,-19,42,-115,0
-138,-153,-256,-117,-289,-321,-94,29,-276,-155,190,-39,19,-124,0
-141,-155,-262,-121,-300,-328,-95,28,-279,-161,188,-43,24,-124,0
-144,-153,-265,-122,-303,-318,-90,45,-264,-111,203,-41,30,-126,0
-137,-156,-264,-122,-299,-309,-91,56,-256,-99,202,-43,24,-131,0
-127,-160,-255,-121,-293,-315,-86,60,-254,-118,204,-38,36,-126,0
-122,-154,-251,-124,-292,-313,-80,52,-255,-120,205,-32,42,-120,0
-115,-153,-253,-127,-287,-304,-85,45,-262,-116,201,-34,28,-122,0
-105,-154,-245,-118,-268,-302,-78,47,-260,-109,207,-35,25,-122,0
-101,-141,-239,-111,-274,-305,-68,51,-252,-93,211,-32,33,-121,0
-103,-134,-246,-117,-305,-306,-80,51,-251,-99,208,-33,20,-123,0
-102,-140,-250,-123,-287,-306,-94,47,-251,-118,212,-32,10,-124,0
-97,-136,-252,-121,-250,-306,-88,49,-248,-115,216,-31,23,-123,0
-92,-127,-258,-115,-253,-305,-79,59,-242,-98,209,-36,29,-123,0
-87,-126,-259,-116,-271,-304,-86,61,-240,-92,210,-35,18,-125,0
-77,-124,-251,-112,-282,-304,-83,58,-239,-91,218,-16,25,-118,0
-69,-112,-244,-101,-284,-300,-66,70,-227,-74,220,-8,53,-101,0
-74,-113,-248,-108,-278,-293,-60,78,-223,-57,215,-28,46,-107,0
-78,-122,-259,-119,-251,-285,-64,68,-236,-61,212,-37,17,-122,0
-68,-119,-257,-106,-239,-278,-62,65,-240,-70,213,-30,30,-116,0
-69,-112,-256,-92,-280,-289,-58,72,-237,-80,204,-40,43,-111,0
-75,-119,-260,-101,-295,-298,-63,74,-242,-92,191,-48,12,-118,0
-60,-121,-251,-110,-236,-284,-59,76,-236,-86,196,-42,2,-121,0
-44,-101,-238,-103,-219,-276,-55,86,-222,-63,209,-38,30,-110,0
-45,-88,-235,-91,-256,-287,-59,93,-217,-48,214,-33,28,-97,0
-43,-97,-232,-89,-237,-297,-62,85,-223,-42,198,-29,17,-95,0
-27,-96,-227,-91,-205,-300,-63,74,-228,-43,173,-31,41,-101,0
-16,-78,-225,-85,-225,-301,-63,69,-227,-66,155,-33,46,-95,0
-14,-72,-225,-82,-229,-298,-63,65,-234,-81,136,-35,17,-92,0
-15,-73,-222,-77,-223,-285,-54,72,-236,-53,131,-30,23,-93,0
-10,-64,-210,-64,-225,-274,-40,84,-214,-22,149,-14,65,-76,0
0,-59,-202,-57,-210,-273,-35,91,-194,-19,160,-10,69,-64,0
-1,-70,-211,-66,-209,-280,-35,91,-201,-29,144,-16,37,-76,0
-9,-83,-223,-82,-227,-280,-31,92,-207,-34,138,-26,32,-86,0
-7,-88,-226,-90,-232,-279,-28,94,-206,-34,141,-36,58,-86,0
6,-91,-222,-90,-227,-280,-31,96,-218,-35,128,-36,58,-84,0
18,-90,-218,-86,-218,-283,-33,94,-235,-32,122,-31,31,-73,0
21,-88,-216,-88,-214,-291,-37,90,-244,-24,126,-30,28,-61,0
31,-88,-214,-91,-220,-293,-37,92,-244,-15,126,-28,56,-61,0
44,-82,-210,-86,-227,-282,-31,98,-232,-8,131,-27,61,-62,0
53,-68,-200,-70,-216,-279,-30,97,-222,-14,139,-20,37,-49,0
64,-60,-189,-59,-198,-291,-34,94,-231,-18,132,-12,38,-34,0
63,-70,-190,-66,-199,-295,-34,88,-240,-12,126,-19,62,-33,0
52,-80,-201,-76,-218,-292,-38,73,-244,-2,123,-39,43,-54,0
51,-79,-206,-87,-231,-291,-43,61,-258,-15,102,-51,14,-64,0
58,-76,-205,-90,-230,-291,-40,64,-267,-30,95,-43,25,-49,0
60,-78,-209,-94,-229,-290,-34,75,-262,-25,116,-29,32,-37,0
64,-77,-206,-93,-213,-281,-32,86,-262,-21,126,-25,20,-35,0
68,-66,-196,-79,-200,-268,-25,93,-256,-8,123,-30,40,-23,0
73,-56,-192,-74,-224,-278,-23,97,-242,5,122,-28,58,-7,0
82,-63,-197,-88,-242,-297,-32,93,-243,-3,121,-27,41,-3,0
84,-80,-193,-88,-212,-292,-33,82,-249,-7,116,-28,49,-2,0
88,-82,-180,-71,-181,-284,-30,80,-241,18,119,-23,85,-1,0
101,-79,-177,-69,-203,-305,-31,80,-239,28,122,-25,86,-6,0
106,-90,-184,-77,-236,-328,-36,64,-253,-2,122,-29,71,-4,0
112,-98,-182,-73,-228,-329,-48,48,-256,-7,124,-28,99,15,0
123,-104,-176,-66,-210,-331,-56,39,-249,19,130,-29,132,32,0
113,-119,-188,-78,-219,-346,-53,30,-253,13,118,-38,110,24,0
99,-125,-201,-87,-232,-354,-42,39,-251,-6,103,-44,99,17,0
112,-129,-188,-76,-233,-350,-33,63,-232,-4,111,-38,129,30,0
121,-142,-186,-81,-240,-351,-29,64,-229,-18,109,-45,118,35,0
115,-147,-198,-96,-246,-359,-31,50,-244,-38,92,-57,93,38,0
125,-136,-193,-91,-241,-356,-27,54,-242,-29,95,-49,119,56,0
129,-135,-190,-86,-237,-349,-22,64,-233,-21,102,-45,141,66,0
116,-148,-201,-95,-248,-364,-27,50,-238,-30,89,-61,108,55,0
121,-143,-202,-98,-267,-386,-32,31,-244,-37,91,-66,88,63,0
141,-126,-192,-94,-268,-391,-32,35,-236,-49,115,-42,115,89,0
149,-124,-188,-92,-249,-388,-30,38,-225,-51,123,-28,135,94,0
150,-129,-184,-88,-236,-383,-29,16,-221,-29,119,-34,121,91,0
149,-124,-186,-91,-239,-384,-33,-4,-223,-24,121,-33,104,94,0
155,-121,-192,-95,-255,-395,-35,-1,-227,-43,125,-29,122,94,0
161,-130,-191,-92,-266,-396,-30,5,-227,-47,121,-38,138,95,0
158,-129,-192,-97,-248,-383,-31,1,-219,-38,118,-47,115,93,0
157,-121,-194,-104,-230,-381,-28,7,-211,-37,121,-45,97,77,0
165,-124,-192,-103,-251,-387,-11,17,-212,-44,115,-48,110,73,0
167,-123,-191,-100,-266,-386,-1,19,-214,-41,113,-56,114,88,0
170,-108,-191,-99,-244,-381,-4,22,-202,-26,120,-52,93,92,0
177,-105,-182,-94,-233,-379,-1,18,-201,-24,110,-53,91,86,0
176,-109,-173,-98,-242,-384,-3,-2,-220,-41,94,-59,103,86,0
183,-94,-168,-102,-237,-386,-22,-7,-221,-51,107,-49,100,92,0
194,-83,-162,-96,-246,-384,-32,4,-207,-46,131,-28,99,97,0
193,-94,-163,-98,-267,-387,-29,3,-200,-24,136,-16,113,94,0
192,-96,-168,-111,-241,-382,-28,7,-192,6,142,-19,122,91,0
194,-86,-166,-120,-217,-372,-28,13,-179,15,156,-20,120,93,0
192,-88,-163,-123,-242,-380,-28,5,-186,-4,155,-19,118,80,0
191,-92,-158,-124,-249,-385,-23,0,-204,-17,142,-19,110,62,0
188,-91,-160,-124,-236,-373,-10,2,-205,-23,129,-29,94,60,0
181,-91,-168,-130,-251,-365,-1,3,-200,-32,123,-38,84,52,0
175,-93,-169,-144,-245,-358,-2,3,-197,-20,125,-40,87,35,0
172,-96,-168,-154,-219,-346,-1,3,-190,-6,129,-44,93,25,0
179,-102,-172,-155,-238,-350,-2,6,-185,-6,136,-43,93,27,0
204,-99,-160,-150,-262,-361,-4,14,-182,-2,147,-31,98,36,0
216,-91,-144,-147,-241,-362,-6,10,-177,-3,155,-28,117,42,0
207,-93,-153,-149,-234,-363,-20,-7,-181,-8,151,-43,125,40,0
206,-97,-162,-155,-250,-368,-34,-20,-198,-3,136,-51,111,37,0
214,-94,-155,-153,-244,-366,-37,-35,-206,-1,124,-57,99,39,0
215,-94,-149,-148,-245,-358,-33,-56,-213,-25,119,-70,98,35,0
213,-108,-146,-153,-262,-351,-35,-58,-219,-38,118,-68,99,29,0
222,-121,-142,-160,-254,-350,-32,-37,-205,-23,129,-51,104,41,0
230,-117,-144,-162,-235,-345,-17,-18,-182,-4,147,-41,115,60,0
233,-111,-147,-158,-238,-333,-11,-17,-180,5,155,-45,117,65,0
233,-118,-146,-153,-257,-331,-15,-25,-187,-4,141,-53,107,55,0
228,-125,-142,-164,-278,-339,-13,-27,-186,-7,132,-55,101,57,0
224,-123,-142,-179,-270,-334,-4,-22,-179,1,139,-56,105,64,0
226,-126,-143,-171,-232,-323,-6,-19,-177,-9,137,-54,107,61,0
240,-122,-131,-156,-228,-325,-19,-27,-184,-23,131,-47,94,60,0
261,-103,-113,-153,-256,-330,-26,-31,-182,-23,142,-38,89,74,0
273,-95,-109,-151,-258,-329,-29,-30,-179,-15,155,-33,107,94,0
281,-95,-104,-146,-241,-329,-42,-42,-188,0,152,-17,125,105,0
299,-89,-88,-135,-229,-332,-59,-54,-183,10,157,-3,126,114,0
303,-84,-83,-136,-227,-332,-63,-53,-171,6,174,-8,115,113,0
290,-88,-94,-148,-249,-334,-62,-56,-177,-2,167,-16,107,103,0
287,-92,-93,-144,-264,-337,-51,-57,-181,-7,154,-22,109,99,0
292,-91,-85,-136,-246,-332,-35,-45,-173,-7,149,-24,103,101,0
290,-97,-94,-152,-233,-324,-34,-35,-173,0,150,-25,84,95,0
277,-111,-109,-173,-245,-317,-31,-33,-169,2,151,-31,76,89,0
259,-123,-114,-173,-264,-308,-6,-19,-151,4,146,-36,85,87,0
263,-121,-112,-164,-271,-295,8,0,-141,13,149,-30,79,88,0
286,-105,-107,-156,-248,-282,5,5,-133,16,170,-20,78,97,0
293,-91,-104,-159,-223,-276,4,-6,-131,20,178,-15,103,112,0
286,-94,-101,-169,-228,-276,2,-27,-145,23,158,-20,102,107,0
286,-104,-95,-163,-243,-279,-9,-44,-163,8,150,-28,64,92,0
293,-97,-82,-153,-253,-286,-25,-48,-168,2,170,-12,59,102,0
308,-81,-73,-149,-254,-293,-33,-39,-159,19,185,16,96,122,0
320,-79,-69,-152,-230,-291,-33,-34,-149,25,199,29,116,129,0
321,-73,-67,-152,-221,-289,-34,-35,-136,20,220,31,107,141,0
325,-60,-66,-151,-251,-293,-30,-24,-118,40,213,32,106,153,0
323,-67,-72,-149,-245,-289,-29,-11,-110,65,166,35,120,140,0
309,-91,-79,-160,-203,-279,-30,-19,-121,57,114,24,99,116,0
293,-102,-88,-182,-201,-272,-16,-36,-137,37,86,-6,50,90,0
285,-99,-98,-192,-235,-274,-4,-35,-151,12,77,-25,45,77,0
285,-97,-98,-187,-240,-272,-5,-24,-148,1,81,-16,72,83,0
296,-96,-92,-181,-213,-253,-4,-17,-127,24,87,-8,53,90,0
300,-95,-94,-183,-206,-244,1,-15,-122,37,87,-16,31,89,0
296,-91,-93,-187,-214,-249,-2,-20,-128,27,90,-21,57,87,0
303,-86,-86,-180,-214,-251,-5,-17,-111,36,101,-10,71,88,0
322,-88,-79,-163,-219,-250,-4,-6,-90,49,118,10,58,102,0
330,-93,-72,-152,-222,-249,-6,-3,-88,48,126,16,68,116,0
325,-90,-69,-158,-205,-256,-5,-15,-100,55,122,6,86,105,0
320,-88,-73,-164,-195,-269,-5,-29,-114,51,114,-5,69,89,0
321,-90,-74,-168,-207,-262,-1,-24,-118,38,115,3,43,97,0
321,-91,-70,-170,-221,-244,1,-12,-110,49,120,16,43,103,0
324,-93,-67,-163,-205,-244,-2,-7,-105,57,123,16,59,100,0
334,-83,-69,-155,-179,-238,6,-7,-99,43,123,14,68,105,0
337,-71,-69,-152,-172,-225,24,0,-79,48,124,12,55,110,0
341,-70,-59,-151,-174,-225,27,7,-65,84,139,14,50,117,0
359,-70,-44,-140,-172,-219,26,15,-55,110,166,28,82,136,0
376,-57,-28,-127,-175,-214,31,33,-39,112,189,52,112,156,0
385,-44,-17,-118,-168,-209,33,46,-24,113,195,66,100,159,0
390,-44,-16,-117,-147,-194,41,42,-33,113,193,62,85,157,0
379,-55,-20,-121,-143,-190,58,32,-44,101,194,47,94,156,0
366,-63,-21,-122,-163,-202,62,34,-33,107,194,40,104,152,0
369,-63,-21,-125,-180,-203,60,34,-27,126,186,42,96,149,0
372,-64,-23,-125,-165,-189,63,32,-32,117,182,39,83,147,0
369,-68,-26,-122,-145,-182,67,41,-32,103,200,43,89,153,0
373,-63,-24,-119,-153,-183,66,44,-27,124,211,48,108,159,0
382,-62,-22,-117,-156,-185,64,36,-23,132,204,39,104,147,0
384,-62,-24,-118,-154,-183,63,38,-18,117,207,36,81,141,0
383,-66,-20,-122,-176,-181,62,46,-18,118,219,52,87,161,0
382,-70,-16,-123,-181,-185,61,52,-13,130,223,62,118,178,0
384,-64,-19,-124,-156,-189,64,62,1,127,221,62,108,178,0
385,-69,-25,-126,-160,-186,62,70,0,127,222,61,72,164,0
387,-80,-26,-126,-174,-180,60,70,0,126,220,57,75,149,0
394,-71,-21,-121,-170,-183,62,78,15,111,224,57,109,160,0
397,-65,-20,-121,-169,-188,58,74,17,119,227,57,107,172,0
392,-81,-23,-122,-165,-187,52,58,7,145,223,50,81,159,0
393,-91,-19,-116,-151,-184,60,58,9,146,226,50,86,160,0
399,-87,-14,-115,-150,-175,67,66,14,137,230,52,118,169,0
406,-98,-20,-117,-158,-161,65,65,10,137,231,46,137,167,0
409,-118,-23,-119,-167,-150,78,61,10,147,238,42,128,174,0
404,-133,-24,-122,-176,-144,83,58,13,137,238,42,120,183,0
399,-149,-28,-124,-168,-133,72,41,4,116,220,36,138,173,0
410,-156,-24,-121,-155,-121,77,28,-6,106,217,33,150,177,0
418,-156,-17,-121,-174,-122,82,34,-1,104,219,30,128,197,0
412,-157,-21,-115,-193,-128,64,45,13,104,207,21,123,201,0
416,-150,-25,-97,-177,-126,69,53,24,113,220,31,154,209,0
359,16,-7,32,-271,-123,-36,60,-12,-28,421,118,187,317,0
368,29,-2,36,-236,-121,-37,42,-29,-55,411,114,184,321,0
375,35,3,40,-236,-125,-36,36,-27,-57,421,122,194,329,0
384,35,10,52,-273,-138,-37,54,-2,-32,441,136,205,340,0
382,41,14,48,-251,-147,-39,57,5,-21,441,132,205,334,0
372,44,11,34,-215,-148,-35,38,-9,-34,435,126,200,320,0
366,38,8,37,-245,-148,-33,42,-11,-43,443,135,212,324,0
355,25,9,34,-266,-152,-42,60,4,-36,443,138,202,327,0
337,4,3,26,-226,-141,-28,71,10,-17,429,132,166,305,0
326,3,-1,32,-201,-125,1,81,15,-10,424,136,162,290,0
310,6,-4,23,-244,-136,-8,79,10,-29,417,131,159,282,0
285,-28,-19,0,-280,-159,-36,64,-6,-54,398,113,123,262,0
270,-56,-26,-5,-245,-161,-37,58,-10,-40,393,111,109,243,0
256,-47,-26,1,-211,-163,-34,63,-6,-19,394,108,129,230,0
232,-51,-40,-3,-239,-183,-41,60,-11,-29,378,88,111,215,0
214,-67,-51,-6,-256,-189,-36,60,-7,-39,371,84,78,210,0
207,-64,-51,-7,-236,-183,-32,62,2,-30,380,85,84,205,0
200,-55,-62,-10,-234,-188,-37,57,-2,-26,382,73,101,190,0
195,-55,-67,-9,-239,-190,-36,60,-2,-18,381,73,103,188,0
195,-57,-58,-9,-224,-186,-29,77,18,5,398,93,99,204,0
196,-53,-48,-5,-214,-188,-30,96,36,17,417,111,111,218,0
192,-44,-48,1,-219,-197,-39,98,35,13,416,114,128,211,0
186,-48,-54,-9,-227,-208,-39,92,28,10,412,109,109,193,0
180,-61,-54,-16,-231,-215,-35,94,25,11,413,104,93,184,0
176,-71,-55,-16,-219,-215,-44,99,26,3,406,105,119,185,0
172,-83,-60,-14,-206,-222,-59,94,22,2,393,104,121,182,0
171,-95,-60,-16,-222,-233,-64,90,22,22,388,97,92,177,0
170,-98,-63,-18,-239,-241,-54,101,27,21,385,97,98,174,0
168,-96,-68,-14,-227,-247,-39,117,34,-8,380,93,123,176,0
169,-95,-64,-7,-209,-240,-32,122,47,-4,383,86,128,191,0
172,-95,-58,-3,-198,-227,-32,119,59,36,392,93,139,209,0
169,-99,-61,-7,-199,-225,-30,127,67,48,406,111,159,220,0
161,-94,-63,-5,-218,-234,-31,142,79,33,413,117,159,229,0
162,-90,-57,1,-221,-241,-35,154,94,40,417,121,161,241,0
168,-89,-44,6,-192,-241,-34,175,104,64,431,131,181,249,0
170,-87,-39,8,-186,-244,-28,182,109,71,434,129,184,250,0
167,-91,-48,3,-210,-259,-38,165,96,46,419,118,173,249,0
162,-95,-56,1,-220,-276,-58,153,71,13,407,109,168,241,0
152,-94,-66,-3,-225,-281,-61,155,69,12,405,101,165,223,0
142,-101,-75,-12,-242,-285,-54,157,78,24,398,95,152,213,0
134,-109,-77,-23,-242,-293,-59,146,66,7,386,82,130,214,0
130,-103,-86,-27,-224,-299,-70,129,48,-15,377,78,117,213,0
134,-87,-88,-24,-212,-299,-66,133,57,1,386,91,129,211,0
142,-81,-76,-20,-217,-295,-47,154,79,26,403,103,145,217,0
149,-80,-74,-13,-228,-296,-35,162,83,39,413,106,152,232,0
159,-69,-69,-4,-224,-303,-34,168,87,44,428,114,169,244,0
166,-63,-58,1,-210,-310,-38,185,95,38,438,127,172,244,0
168,-65,-64,-9,-213,-312,-36,189,96,40,440,131,158,245,0
167,-66,-71,-17,-226,-312,-31,175,95,42,441,129,168,244,0
155,-68,-72,-16,-228,-320,-42,160,85,22,423,113,156,224,0
142,-68,-77,-14,-213,-325,-59,155,73,26,398,94,118,201,0
142,-57,-81,-12,-196,-318,-50,161,75,58,399,94,123,203,0
148,-52,-76,-15,-214,-320,-31,157,79,55,409,102,138,214,0
144,-64,-76,-27,-238,-334,-44,146,70,31,405,101,118,201,0
133,-67,-82,-33,-221,-331,-54,148,64,32,401,92,108,179,0
128,-62,-87,-29,-196,-321,-39,163,74,40,405,93,124,181,0
135,-57,-87,-24,-199,-325,-32,179,87,55,417,107,142,200,0
145,-52,-81,-27,-205,-329,-34,186,91,73,432,113,157,205,0
147,-52,-81,-29,-203,-329,-32,187,93,70,436,113,148,201,0
163,-47,-77,-21,-212,-332,-34,186,94,76,438,128,134,210,0
194,-30,-55,1,-219,-328,-33,194,97,87,447,149,169,232,0
205,-20,-48,9,-213,-322,-28,210,102,80,452,149,201,244,0
184,-35,-69,-4,-207,-321,-29,210,107,83,448,132,173,226,0
160,-53,-87,-23,-200,-321,-33,195,88,62,439,117,137,197,0
149,-63,-90,-35,-194,-322,-32,181,60,18,422,105,122,183,0
147,-80,-97,-34,-200,-330,-37,166,53,31,396,90,109,173,0
137,-99,-104,-35,-215,-337,-43,149,48,61,374,66,103,153,0
132,-96,-103,-41,-208,-335,-37,147,38,46,381,65,108,144,0
142,-72,-99,-35,-193,-335,-36,165,43,38,395,87,107,159,0
155,-71,-93,-26,-201,-342,-50,171,51,50,387,92,113,172,0
154,-81,-95,-32,-218,-347,-63,155,48,49,384,84,129,168,0
159,-70,-93,-34,-224,-351,-64,150,49,46,408,96,141,180,0
183,-54,-84,-20,-216,-354,-64,168,57,50,430,114,157,204,0
211,-34,-73,-6,-204,-351,-68,173,61,62,436,121,181,226,0
248,3,-61,6,-215,-349,-65,163,63,62,455,137,210,260,0
295,47,-43,18,-225,-358,-71,157,54,48,483,163,257,320,0
346,82,-22,39,-192,-357,-86,158,50,80,509,181,315,380,0
386,99,-13,59,-178,-359,-90,153,44,95,523,195,339,412,0
403,103,-17,51,-212,-376,-90,140,20,6,516,196,323,418,0
408,99,-23,26,-211,-379,-90,133,5,-25,509,186,324,420,0
405,78,-31,26,-200,-372,-89,132,13,67,501,178,350,418,0
400,58,-40,35,-234,-374,-89,139,21,96,504,180,350,408,0
404,64,-33,16,-242,-374,-91,152,26,51,529,193,336,415,0
407,63,-25,-3,-219,-369,-90,161,41,61,538,205,334,420,0
395,38,-35,0,-221,-374,-90,160,45,91,517,204,330,402,0
378,27,-46,2,-225,-372,-87,154,34,86,499,188,314,382,0
374,33,-45,-1,-234,-364,-84,154,31,54,491,173,288,367,0
374,29,-43,-1,-244,-361,-88,153,35,33,492,173,266,358,0
368,31,-45,1,-227,-356,-90,156,42,52,495,179,259,355,0
354,29,-59,-2,-209,-348,-92,151,38,51,475,170,248,334,0
338,8,-73,-12,-200,-337,-95,137,27,19,450,153,221,304,0
316,0,-84,-27,-190,-327,-94,124,16,33,441,133,190,282,0
296,0,-91,-31,-202,-320,-88,120,6,60,421,111,163,255,0
292,-16,-90,-27,-206,-310,-76,122,6,47,407,106,148,232,0
288,-22,-90,-33,-189,-306,-62,122,14,45,416,113,150,233,0
276,-16,-94,-41,-209,-317,-61,125,15,46,424,116,149,236,0
273,-24,-90,-35,-224,-318,-66,135,17,11,434,126,147,238,0
281,-32,-79,-33,-196,-304,-64,145,29,23,438,143,140,240,0
280,-32,-75,-39,-184,-306,-61,151,34,74,427,142,126,228,0
272,-38,-79,-39,-198,-308,-62,150,29,63,418,122,123,218,0
272,-37,-86,-35,-191,-289,-61,148,28,36,419,115,129,220,0
277,-33,-87,-32,-180,-279,-58,145,27,61,417,115,122,215,0
271,-37,-95,-36,-173,-285,-60,130,22,87,410,102,112,203,0
266,-34,-106,-38,-171,-289,-65,119,19,70,409,101,112,198,0
278,-29,-101,-34,-189,-286,-68,131,21,59,413,110,118,198,0
282,-29,-96,-30,-184,-272,-69,145,30,71,416,106,112,193,0
260,-33,-107,-34,-145,-263,-58,146,38,85,415,98,98,185,0
248,-36,-112,-39,-129,-265,-39,149,43,95,413,92,106,179,0
256,-30,-103,-35,-152,-257,-29,156,50,102,410,88,126,172,0
260,-32,-101,-29,-153,-242,-28,173,61,116,417,100,109,176,0
257,-52,-108,-37,-147,-240,-27,185,63,97,425,107,90,182,0
257,-62,-102,-57,-175,-245,-25,181,58,74,416,96,105,178,0
258,-57,-91,-63,-189,-244,-26,177,59,108,409,97,107,178,0
257,-59,-96,-61,-150,-234,-26,185,65,118,415,109,95,180,0
268,-61,-94,-60,-130,-219,-21,186,67,84,427,114,115,188,0
286,-62,-77,-53,-157,-217,-21,180,64,117,434,124,131,201,0
295,-67,-73,-44,-164,-217,-29,180,64,165,435,139,122,211,0
302,-68,-81,-37,-133,-210,-29,184,76,135,436,139,140,213,0
309,-75,-85,-38,-118,-209,-26,184,80,114,433,130,163,214,0
306,-95,-87,-45,-141,-207,-31,179,66,144,427,120,148,210,0
311,-88,-85,-40,-152,-195,-31,180,61,146,428,121,153,221,0
326,-64,-81,-25,-130,-187,-26,184,77,127,435,126,191,248,0
325,-72,-82,-24,-113,-189,-29,178,81,121,429,122,180,252,0
315,-90,-91,-30,-121,-184,-28,171,71,114,414,115,145,241,0
313,-92,-99,-32,-137,-187,-28,164,61,100,411,114,167,249,0
320,-92,-91,-32,-144,-198,-26,170,70,100,428,123,195,268,0
332,-95,-76,-27,-146,-198,-11,180,84,118,440,130,174,278,0
338,-92,-83,-28,-143,-194,-2,177,74,114,426,125,166,274,0
338,-87,-92,-29,-129,-192,-7,167,63,82,420,120,193,274,0
334,-89,-93,-28,-125,-193,-9,169,73,82,426,118,186,269,0
332,-92,-97,-32,-155,-196,-13,174,82,119,427,120,159,261,0
341,-89,-94,-37,-165,-191,-20,169,82,122,425,118,164,263,0
344,-88,-89,-39,-123,-183,-23,165,80,88,419,113,175,263,0
340,-87,-93,-36,-105,-186,-28,160,74,80,411,111,173,253,0
349,-75,-95,-31,-114,-187,-30,161,73,104,422,114,179,261,0
363,-65,-87,-30,-127,-184,-30,169,79,109,434,117,179,273,0
363,-62,-83,-31,-149,-189,-24,170,81,101,428,120,172,266,0
367,-63,-78,-29,-141,-185,-7,170,77,101,427,125,179,264,0
371,-72,-76,-34,-111,-178,0,171,74,103,436,126,185,268,0
365,-74,-82,-40,-121,-184,-5,175,73,110,435,129,172,266,0
371,-62,-78,-35,-138,-178,-1,179,75,116,429,132,161,272,0
384,-59,-69,-32,-128,-173,4,178,76,101,434,134,173,277,0
377,-62,-74,-31,-137,-190,-2,175,73,90,442,132,191,273,0
372,-57,-84,-33,-142,-202,-3,180,78,106,444,130,180,273,0
